Memory Total (MiB) 	 Memory Used (MiB) 	    Memory Free (MiB) 	 Power Drawed (W) 	 Clocks (Mhz) 	 
 43692.65567		 261.35540			43431.30027		177.92200		875.00000 
 43692.65567		 261.35540			43431.30027		69.65600		324.00000 
 43692.65567		 261.35540			43431.30027		177.92200		875.00000 
 43692.65567		 261.35540			43431.30027		69.65600		324.00000 
 43692.65567		 261.35540			43431.30027		177.92200		875.00000 
 43692.65567		 261.35540			43431.30027		69.65600		324.00000 
 43692.65567		 261.35540			43431.30027		177.92200		875.00000 
 43692.65567		 261.35540			43431.30027		69.65600		324.00000 
 43692.65567		 261.35540			43431.30027		177.92200		875.00000 
 43692.65567		 261.35540			43431.30027		69.65600		324.00000 
 43692.65567		 261.35540			43431.30027		177.92200		875.00000 
 43692.65567		 261.35540			43431.30027		69.65600		324.00000 
 43692.65567		 261.35540			43431.30027		177.92200		875.00000 
 43692.65567		 261.35540			43431.30027		69.65600		324.00000 
 43692.65567		 261.35540			43431.30027		177.92200		875.00000 
 43692.65567		 261.35540			43431.30027		69.65600		324.00000 
 43692.65567		 261.35540			43431.30027		177.92200		875.00000 
 43692.65567		 261.35540			43431.30027		69.65600		324.00000 
 43692.65567		 261.35540			43431.30027		177.92200		875.00000 
 43692.65567		 261.35540			43431.30027		69.65600		324.00000 
 43692.65567		 261.35540			43431.30027		177.92200		875.00000 
 43692.65567		 261.35540			43431.30027		69.65600		324.00000 
 43692.65567		 261.35540			43431.30027		177.92200		875.00000 
 43692.65567		 261.35540			43431.30027		69.65600		324.00000 
 43692.65567		 261.35540			43431.30027		177.92200		875.00000 
 43692.65567		 261.35540			43431.30027		69.65600		324.00000 
 43692.65567		 261.35540			43431.30027		177.92200		875.00000 
 43692.65567		 261.35540			43431.30027		69.65600		324.00000 
 43692.65567		 261.35540			43431.30027		177.92200		875.00000 
 43692.65567		 261.35540			43431.30027		69.65600		324.00000 
 43692.65567		 261.35540			43431.30027		177.92200		875.00000 
 43692.65567		 261.35540			43431.30027		69.65600		324.00000 
 43692.65567		 261.35540			43431.30027		177.92200		875.00000 
 43692.65567		 261.35540			43431.30027		69.65600		324.00000 
 43692.65567		 261.35540			43431.30027		177.92200		875.00000 
 43692.65567		 261.35540			43431.30027		69.65600		324.00000 
 43692.65567		 265.17429			43427.48138		177.92200		875.00000 
 43692.65567		 261.35540			43431.30027		69.65600		324.00000 
 43692.65567		 265.17429			43427.48138		149.66000		875.00000 
 43692.65567		 261.35540			43431.30027		69.65600		324.00000 
 43692.65567		 272.81207			43419.84360		149.66000		875.00000 
 43692.65567		 261.35540			43431.30027		69.65600		324.00000 
 43692.65567		 272.81207			43419.84360		149.66000		875.00000 
 43692.65567		 261.35540			43431.30027		69.65600		324.00000 
 43692.65567		 272.81207			43419.84360		149.66000		875.00000 
 43692.65567		 265.17429			43427.48138		69.65600		324.00000 
 43692.65567		 272.81207			43419.84360		149.66000		875.00000 
 43692.65567		 265.17429			43427.48138		69.65600		324.00000 
 43692.65567		 272.81207			43419.84360		149.66000		875.00000 
 43692.65567		 272.81207			43419.84360		69.65600		324.00000 
 43692.65567		 272.81207			43419.84360		149.66000		875.00000 
 43692.65567		 272.81207			43419.84360		69.65600		324.00000 
 43692.65567		 272.81207			43419.84360		149.66000		875.00000 
 43692.65567		 272.81207			43419.84360		69.65600		324.00000 
 43692.65567		 272.81207			43419.84360		149.66000		875.00000 
 43692.65567		 305.27265			43387.38302		69.65600		324.00000 
 43692.65567		 305.27265			43387.38302		149.66000		875.00000 
 43692.65567		 305.27265			43387.38302		69.65600		324.00000 
 43692.65567		 305.27265			43387.38302		149.66000		875.00000 
 43692.65567		 305.27265			43387.38302		69.65600		324.00000 
 43692.65567		 305.27265			43387.38302		149.66000		875.00000 
 43692.65567		 305.27265			43387.38302		69.65600		324.00000 
 43692.65567		 305.27265			43387.38302		149.66000		875.00000 
 43692.65567		 305.27265			43387.38302		69.65600		324.00000 
 43692.65567		 305.27265			43387.38302		149.66000		875.00000 
 43692.65567		 305.27265			43387.38302		69.65600		324.00000 
 43692.65567		 310.04627			43382.60941		149.66000		875.00000 
 43692.65567		 305.27265			43387.38302		69.65600		324.00000 
 43692.65567		 311.00099			43381.65468		149.66000		875.00000 
 43692.65567		 305.27265			43387.38302		69.65600		324.00000 
 43692.65567		 311.00099			43381.65468		149.66000		875.00000 
 43692.65567		 305.27265			43387.38302		69.65600		324.00000 
 43692.65567		 311.00099			43381.65468		149.66000		875.00000 
 43692.65567		 305.27265			43387.38302		69.65600		324.00000 
 43692.65567		 311.00099			43381.65468		149.66000		875.00000 
 43692.65567		 305.27265			43387.38302		69.65600		324.00000 
 43692.65567		 311.00099			43381.65468		149.66000		875.00000 
 43692.65567		 305.27265			43387.38302		69.65600		324.00000 
 43692.65567		 311.00099			43381.65468		149.66000		875.00000 
 43692.65567		 305.27265			43387.38302		69.65600		324.00000 
 43692.65567		 311.00099			43381.65468		149.66000		875.00000 
 43692.65567		 305.27265			43387.38302		69.65600		324.00000 
 43692.65567		 311.00099			43381.65468		149.66000		875.00000 
 43692.65567		 305.27265			43387.38302		69.65600		324.00000 
 43692.65567		 311.00099			43381.65468		149.66000		875.00000 
 43692.65567		 305.27265			43387.38302		69.65600		324.00000 
 43692.65567		 311.00099			43381.65468		149.66000		875.00000 
 43692.65567		 305.27265			43387.38302		69.65600		324.00000 
 43692.65567		 311.00099			43381.65468		149.66000		875.00000 
 43692.65567		 305.27265			43387.38302		69.65600		324.00000 
 43692.65567		 311.00099			43381.65468		149.66000		875.00000 
 43692.65567		 305.27265			43387.38302		69.65600		324.00000 
 43692.65567		 311.00099			43381.65468		149.66000		875.00000 
 43692.65567		 305.27265			43387.38302		69.65600		324.00000 
 43692.65567		 311.00099			43381.65468		149.66000		875.00000 
 43692.65567		 305.27265			43387.38302		69.65600		324.00000 
 43692.65567		 311.00099			43381.65468		149.66000		875.00000 
 43692.65567		 305.27265			43387.38302		69.65600		324.00000 
 43692.65567		 311.00099			43381.65468		149.66000		875.00000 
 43692.65567		 305.27265			43387.38302		69.65600		324.00000 
 43692.65567		 311.00099			43381.65468		138.68600		875.00000 
 43692.65567		 305.27265			43387.38302		69.65600		324.00000 
 43692.65567		 311.00099			43381.65468		138.68600		875.00000 
 43692.65567		 305.27265			43387.38302		69.65600		324.00000 
 43692.65567		 311.00099			43381.65468		138.68600		875.00000 
 43692.65567		 305.27265			43387.38302		69.65600		324.00000 
 43692.65567		 311.00099			43381.65468		138.68600		875.00000 
 43692.65567		 305.27265			43387.38302		66.22000		324.00000 
 43692.65567		 311.00099			43381.65468		138.68600		875.00000 
 43692.65567		 305.27265			43387.38302		66.22000		324.00000 
 43692.65567		 311.00099			43381.65468		138.68600		875.00000 
 43692.65567		 305.27265			43387.38302		66.22000		324.00000 
 43692.65567		 311.00099			43381.65468		138.68600		875.00000 
 43692.65567		 305.27265			43387.38302		66.22000		324.00000 
 43692.65567		 311.00099			43381.65468		138.68600		875.00000 
 43692.65567		 305.27265			43387.38302		66.22000		324.00000 
 43692.65567		 311.00099			43381.65468		138.68600		875.00000 
 43692.65567		 305.27265			43387.38302		66.22000		324.00000 
 43692.65567		 311.00099			43381.65468		138.68600		875.00000 
 43692.65567		 305.27265			43387.38302		66.22000		324.00000 
 43692.65567		 311.00099			43381.65468		138.68600		875.00000 
 43692.65567		 305.27265			43387.38302		66.22000		324.00000 
 43692.65567		 311.00099			43381.65468		138.68600		875.00000 
 43692.65567		 305.27265			43387.38302		66.22000		324.00000 
 43692.65567		 311.00099			43381.65468		138.68600		875.00000 
 43692.65567		 305.27265			43387.38302		66.22000		324.00000 
 43692.65567		 311.00099			43381.65468		138.68600		875.00000 
 43692.65567		 305.27265			43387.38302		66.22000		324.00000 
 43692.65567		 311.00099			43381.65468		138.68600		875.00000 
 43692.65567		 305.27265			43387.38302		66.22000		324.00000 
 43692.65567		 311.00099			43381.65468		138.68600		875.00000 
 43692.65567		 305.27265			43387.38302		66.22000		324.00000 
 43692.65567		 311.00099			43381.65468		138.68600		875.00000 
 43692.65567		 305.27265			43387.38302		66.22000		324.00000 
 43692.65567		 311.00099			43381.65468		138.68600		875.00000 
 43692.65567		 305.27265			43387.38302		66.22000		324.00000 
 43692.65567		 311.00099			43381.65468		138.68600		875.00000 
 43692.65567		 305.27265			43387.38302		66.22000		324.00000 
 43692.65567		 311.00099			43381.65468		138.68600		875.00000 
 43692.65567		 305.27265			43387.38302		66.22000		324.00000 
 43692.65567		 311.00099			43381.65468		138.68600		875.00000 
 43692.65567		 305.27265			43387.38302		66.22000		324.00000 
 43692.65567		 311.00099			43381.65468		138.68600		875.00000 
 43692.65567		 305.27265			43387.38302		66.22000		324.00000 
 43692.65567		 311.00099			43381.65468		138.68600		875.00000 
 43692.65567		 305.27265			43387.38302		66.22000		324.00000 
 43692.65567		 311.00099			43381.65468		138.68600		875.00000 
 43692.65567		 305.27265			43387.38302		66.22000		324.00000 
 43692.65567		 311.00099			43381.65468		138.68600		875.00000 
 43692.65567		 305.27265			43387.38302		66.22000		324.00000 
 43692.65567		 311.00099			43381.65468		138.68600		875.00000 
 43692.65567		 305.27265			43387.38302		66.22000		324.00000 
 43692.65567		 311.00099			43381.65468		138.68600		875.00000 
 43692.65567		 305.27265			43387.38302		66.22000		324.00000 
 43692.65567		 311.00099			43381.65468		138.68600		875.00000 
 43692.65567		 305.27265			43387.38302		66.22000		324.00000 
 43692.65567		 311.00099			43381.65468		138.68600		875.00000 
 43692.65567		 305.27265			43387.38302		66.22000		324.00000 
 43692.65567		 311.00099			43381.65468		138.68600		875.00000 
 43692.65567		 305.27265			43387.38302		66.22000		324.00000 
 43692.65567		 311.00099			43381.65468		135.12400		875.00000 
 43692.65567		 305.27265			43387.38302		66.22000		324.00000 
 43692.65567		 311.00099			43381.65468		135.12400		875.00000 
 43692.65567		 305.27265			43387.38302		66.22000		324.00000 
 43692.65567		 311.00099			43381.65468		135.12400		875.00000 
 43692.65567		 305.27265			43387.38302		66.22000		324.00000 
 43692.65567		 311.00099			43381.65468		135.12400		875.00000 
 43692.65567		 305.27265			43387.38302		66.22000		324.00000 
 43692.65567		 311.00099			43381.65468		135.12400		875.00000 
 43692.65567		 305.27265			43387.38302		66.22000		324.00000 
 43692.65567		 311.00099			43381.65468		135.12400		875.00000 
 43692.65567		 305.27265			43387.38302		66.22000		324.00000 
 43692.65567		 314.81988			43377.83579		135.12400		875.00000 
 43692.65567		 305.27265			43387.38302		66.22000		324.00000 
 43692.65567		 314.81988			43377.83579		135.12400		875.00000 
 43692.65567		 305.27265			43387.38302		66.22000		324.00000 
 43692.65567		 318.63877			43374.01690		135.12400		875.00000 
 43692.65567		 305.27265			43387.38302		66.22000		324.00000 
 43692.65567		 322.45767			43370.19801		135.12400		875.00000 
 43692.65567		 305.27265			43387.38302		66.22000		324.00000 
 43692.65567		 326.27656			43366.37912		135.12400		875.00000 
 43692.65567		 305.27265			43387.38302		66.22000		324.00000 
 43692.65567		 326.27656			43366.37912		135.12400		875.00000 
 43692.65567		 305.27265			43387.38302		66.22000		324.00000 
 43692.65567		 326.27656			43366.37912		135.12400		875.00000 
 43692.65567		 305.27265			43387.38302		66.22000		324.00000 
 43692.65567		 537.27032			43155.38535		135.12400		875.00000 
 43692.65567		 305.27265			43387.38302		66.22000		324.00000 
 43692.65567		 776.90577			42915.74990		135.12400		875.00000 
 43692.65567		 305.27265			43387.38302		66.22000		324.00000 
 43692.65567		 896.72350			42795.93217		135.12400		875.00000 
 43692.65567		 305.27265			43387.38302		66.22000		324.00000 
 43692.65567		 896.72350			42795.93217		135.12400		875.00000 
 43692.65567		 305.27265			43387.38302		66.22000		324.00000 
 43692.65567		 896.72350			42795.93217		135.12400		875.00000 
 43692.65567		 305.27265			43387.38302		66.22000		324.00000 
 43692.65567		 896.72350			42795.93217		135.12400		875.00000 
 43692.65567		 305.27265			43387.38302		66.22000		324.00000 
 43692.65567		 896.72350			42795.93217		135.12400		875.00000 
 43692.65567		 305.27265			43387.38302		66.22000		324.00000 
 43692.65567		 896.72350			42795.93217		135.12400		875.00000 
 43692.65567		 305.27265			43387.38302		66.22000		324.00000 
 43692.65567		 896.72350			42795.93217		135.12400		875.00000 
 43692.65567		 305.27265			43387.38302		66.22000		324.00000 
 43692.65567		 896.72350			42795.93217		135.12400		875.00000 
 43692.65567		 305.27265			43387.38302		66.22000		324.00000 
 43692.65567		 896.72350			42795.93217		135.12400		875.00000 
 43692.65567		 305.27265			43387.38302		66.22000		324.00000 
 43692.65567		 896.72350			42795.93217		135.12400		875.00000 
 43692.65567		 305.27265			43387.38302		66.22000		324.00000 
 43692.65567		 896.72350			42795.93217		135.12400		875.00000 
 43692.65567		 305.27265			43387.38302		66.22000		324.00000 
 43692.65567		 896.72350			42795.93217		135.12400		875.00000 
 43692.65567		 305.27265			43387.38302		66.22000		324.00000 
 43692.65567		 896.72350			42795.93217		135.12400		875.00000 
 43692.65567		 305.27265			43387.38302		66.22000		324.00000 
 43692.65567		 896.72350			42795.93217		135.12400		875.00000 
 43692.65567		 305.27265			43387.38302		66.22000		324.00000 
 43692.65567		 896.72350			42795.93217		135.12400		875.00000 
 43692.65567		 305.27265			43387.38302		66.22000		324.00000 
 43692.65567		 896.72350			42795.93217		135.12400		875.00000 
 43692.65567		 305.27265			43387.38302		66.22000		324.00000 
 43692.65567		 896.72350			42795.93217		135.12400		875.00000 
 43692.65567		 305.27265			43387.38302		66.22000		324.00000 
 43692.65567		 896.72350			42795.93217		135.12400		875.00000 
 43692.65567		 305.27265			43387.38302		66.22000		324.00000 
 43692.65567		 896.72350			42795.93217		135.12400		875.00000 
 43692.65567		 305.27265			43387.38302		66.22000		324.00000 
 43692.65567		 896.72350			42795.93217		135.12400		875.00000 
 43692.65567		 305.27265			43387.38302		66.22000		324.00000 
 43692.65567		 896.72350			42795.93217		135.12400		875.00000 
 43692.65567		 305.27265			43387.38302		66.22000		324.00000 
 43692.65567		 896.72350			42795.93217		135.12400		875.00000 
 43692.65567		 305.27265			43387.38302		66.22000		324.00000 
 43692.65567		 896.72350			42795.93217		135.12400		875.00000 
 43692.65567		 305.27265			43387.38302		66.22000		324.00000 
 43692.65567		 896.72350			42795.93217		135.12400		875.00000 
 43692.65567		 305.27265			43387.38302		66.22000		324.00000 
 43692.65567		 896.72350			42795.93217		135.12400		875.00000 
 43692.65567		 305.27265			43387.38302		66.22000		324.00000 
 43692.65567		 896.72350			42795.93217		135.12400		875.00000 
 43692.65567		 305.27265			43387.38302		66.22000		324.00000 
 43692.65567		 896.72350			42795.93217		135.12400		875.00000 
 43692.65567		 305.27265			43387.38302		66.22000		324.00000 
 43692.65567		 896.72350			42795.93217		135.12400		875.00000 
 43692.65567		 305.27265			43387.38302		66.22000		324.00000 
 43692.65567		 896.72350			42795.93217		135.12400		875.00000 
 43692.65567		 305.27265			43387.38302		66.22000		324.00000 
 43692.65567		 896.72350			42795.93217		135.12400		875.00000 
 43692.65567		 305.27265			43387.38302		66.22000		324.00000 
 43692.65567		 896.72350			42795.93217		135.12400		875.00000 
 43692.65567		 305.27265			43387.38302		66.22000		324.00000 
 43692.65567		 896.72350			42795.93217		135.12400		875.00000 
 43692.65567		 305.27265			43387.38302		66.22000		324.00000 
 43692.65567		 896.72350			42795.93217		135.12400		875.00000 
 43692.65567		 305.27265			43387.38302		66.22000		324.00000 
 43692.65567		 896.72350			42795.93217		135.12400		875.00000 
 43692.65567		 305.27265			43387.38302		66.22000		324.00000 
 43692.65567		 896.72350			42795.93217		135.12400		875.00000 
 43692.65567		 305.27265			43387.38302		66.22000		324.00000 
 43692.65567		 896.72350			42795.93217		135.12400		875.00000 
 43692.65567		 305.27265			43387.38302		66.22000		324.00000 
 43692.65567		 896.72350			42795.93217		135.12400		875.00000 
 43692.65567		 305.27265			43387.38302		66.22000		324.00000 
 43692.65567		 896.72350			42795.93217		135.12400		875.00000 
 43692.65567		 305.27265			43387.38302		66.22000		324.00000 
 43692.65567		 896.72350			42795.93217		135.12400		875.00000 
 43692.65567		 305.27265			43387.38302		66.22000		324.00000 
 43692.65567		 896.72350			42795.93217		135.12400		875.00000 
 43692.65567		 305.27265			43387.38302		66.22000		324.00000 
 43692.65567		 896.72350			42795.93217		177.74000		875.00000 
 43692.65567		 305.27265			43387.38302		66.22000		324.00000 
 43692.65567		 896.72350			42795.93217		177.74000		875.00000 
 43692.65567		 305.27265			43387.38302		66.22000		324.00000 
 43692.65567		 896.72350			42795.93217		177.74000		875.00000 
 43692.65567		 305.27265			43387.38302		66.22000		324.00000 
 43692.65567		 896.72350			42795.93217		177.74000		875.00000 
 43692.65567		 305.27265			43387.38302		66.22000		324.00000 
 43692.65567		 896.72350			42795.93217		177.74000		875.00000 
 43692.65567		 305.27265			43387.38302		66.22000		324.00000 
 43692.65567		 896.72350			42795.93217		177.74000		875.00000 
 43692.65567		 305.27265			43387.38302		66.22000		324.00000 
 43692.65567		 896.72350			42795.93217		177.74000		875.00000 
 43692.65567		 305.27265			43387.38302		66.22000		324.00000 
 43692.65567		 896.72350			42795.93217		177.74000		875.00000 
 43692.65567		 305.27265			43387.38302		66.22000		324.00000 
 43692.65567		 896.72350			42795.93217		177.74000		875.00000 
 43692.65567		 305.27265			43387.38302		66.22000		324.00000 
 43692.65567		 896.72350			42795.93217		177.74000		875.00000 
 43692.65567		 305.27265			43387.38302		66.22000		324.00000 
 43692.65567		 896.72350			42795.93217		177.74000		875.00000 
 43692.65567		 305.27265			43387.38302		66.22000		324.00000 
 43692.65567		 896.72350			42795.93217		177.74000		875.00000 
 43692.65567		 305.27265			43387.38302		66.22000		324.00000 
 43692.65567		 896.72350			42795.93217		177.74000		875.00000 
 43692.65567		 305.27265			43387.38302		66.22000		324.00000 
 43692.65567		 896.72350			42795.93217		177.74000		875.00000 
 43692.65567		 305.27265			43387.38302		66.22000		324.00000 
 43692.65567		 896.72350			42795.93217		177.74000		875.00000 
 43692.65567		 305.27265			43387.38302		66.22000		324.00000 
 43692.65567		 896.72350			42795.93217		177.74000		875.00000 
 43692.65567		 305.27265			43387.38302		66.22000		324.00000 
 43692.65567		 896.72350			42795.93217		177.74000		875.00000 
 43692.65567		 305.27265			43387.38302		66.22000		324.00000 
 43692.65567		 896.72350			42795.93217		177.74000		875.00000 
 43692.65567		 305.27265			43387.38302		66.22000		324.00000 
 43692.65567		 896.72350			42795.93217		177.74000		875.00000 
 43692.65567		 305.27265			43387.38302		66.22000		324.00000 
 43692.65567		 896.72350			42795.93217		177.74000		875.00000 
 43692.65567		 305.27265			43387.38302		66.22000		324.00000 
 43692.65567		 896.72350			42795.93217		177.74000		875.00000 
 43692.65567		 305.27265			43387.38302		66.22000		324.00000 
 43692.65567		 896.72350			42795.93217		177.74000		875.00000 
 43692.65567		 305.27265			43387.38302		66.22000		324.00000 
 43692.65567		 896.72350			42795.93217		177.74000		875.00000 
 43692.65567		 305.27265			43387.38302		66.22000		324.00000 
 43692.65567		 896.72350			42795.93217		177.74000		875.00000 
 43692.65567		 305.27265			43387.38302		66.22000		324.00000 
 43692.65567		 896.72350			42795.93217		177.74000		875.00000 
 43692.65567		 305.27265			43387.38302		66.22000		324.00000 
 43692.65567		 896.72350			42795.93217		177.74000		875.00000 
 43692.65567		 305.27265			43387.38302		66.22000		324.00000 
 43692.65567		 896.72350			42795.93217		177.74000		875.00000 
 43692.65567		 305.27265			43387.38302		66.22000		324.00000 
 43692.65567		 896.72350			42795.93217		177.74000		875.00000 
 43692.65567		 305.27265			43387.38302		66.22000		324.00000 
 43692.65567		 896.72350			42795.93217		177.74000		875.00000 
 43692.65567		 305.27265			43387.38302		66.22000		324.00000 
 43692.65567		 896.72350			42795.93217		177.74000		875.00000 
 43692.65567		 305.27265			43387.38302		66.22000		324.00000 
 43692.65567		 896.72350			42795.93217		177.74000		875.00000 
 43692.65567		 305.27265			43387.38302		66.22000		324.00000 
 43692.65567		 896.72350			42795.93217		177.74000		875.00000 
 43692.65567		 305.27265			43387.38302		66.22000		324.00000 
 43692.65567		 896.72350			42795.93217		177.74000		875.00000 
 43692.65567		 305.27265			43387.38302		66.22000		324.00000 
 43692.65567		 896.72350			42795.93217		177.74000		875.00000 
 43692.65567		 305.27265			43387.38302		66.22000		324.00000 
 43692.65567		 896.72350			42795.93217		177.74000		875.00000 
 43692.65567		 305.27265			43387.38302		66.22000		324.00000 
 43692.65567		 896.72350			42795.93217		177.74000		875.00000 
 43692.65567		 305.27265			43387.38302		66.22000		324.00000 
 43692.65567		 896.72350			42795.93217		177.74000		875.00000 
 43692.65567		 305.27265			43387.38302		66.22000		324.00000 
 43692.65567		 896.72350			42795.93217		177.74000		875.00000 
 43692.65567		 305.27265			43387.38302		66.22000		324.00000 
 43692.65567		 896.72350			42795.93217		177.74000		875.00000 
 43692.65567		 305.27265			43387.38302		66.22000		324.00000 
 43692.65567		 896.72350			42795.93217		177.74000		875.00000 
 43692.65567		 305.27265			43387.38302		66.22000		324.00000 
 43692.65567		 896.72350			42795.93217		177.74000		875.00000 
 43692.65567		 305.27265			43387.38302		66.22000		324.00000 
 43692.65567		 896.72350			42795.93217		177.74000		875.00000 
 43692.65567		 305.27265			43387.38302		66.22000		324.00000 
 43692.65567		 896.72350			42795.93217		177.74000		875.00000 
 43692.65567		 305.27265			43387.38302		66.22000		324.00000 
 43692.65567		 896.72350			42795.93217		177.74000		875.00000 
 43692.65567		 305.27265			43387.38302		66.22000		324.00000 
 43692.65567		 896.72350			42795.93217		177.74000		875.00000 
 43692.65567		 305.27265			43387.38302		66.22000		324.00000 
 43692.65567		 896.72350			42795.93217		177.74000		875.00000 
 43692.65567		 305.27265			43387.38302		66.22000		324.00000 
 43692.65567		 896.72350			42795.93217		177.74000		875.00000 
 43692.65567		 305.27265			43387.38302		66.22000		324.00000 
 43692.65567		 896.72350			42795.93217		177.74000		875.00000 
 43692.65567		 305.27265			43387.38302		66.22000		324.00000 
 43692.65567		 896.72350			42795.93217		177.74000		875.00000 
 43692.65567		 305.27265			43387.38302		66.22000		324.00000 
 43692.65567		 896.72350			42795.93217		177.74000		875.00000 
 43692.65567		 305.27265			43387.38302		66.22000		324.00000 
 43692.65567		 896.72350			42795.93217		177.74000		875.00000 
 43692.65567		 305.27265			43387.38302		66.22000		324.00000 
 43692.65567		 896.72350			42795.93217		177.74000		875.00000 
 43692.65567		 305.27265			43387.38302		66.22000		324.00000 
 43692.65567		 896.72350			42795.93217		177.74000		875.00000 
 43692.65567		 305.27265			43387.38302		66.22000		324.00000 
 43692.65567		 896.72350			42795.93217		177.74000		875.00000 
 43692.65567		 305.27265			43387.38302		66.22000		324.00000 
 43692.65567		 896.72350			42795.93217		177.74000		875.00000 
 43692.65567		 305.27265			43387.38302		66.22000		324.00000 
 43692.65567		 896.72350			42795.93217		177.74000		875.00000 
 43692.65567		 305.27265			43387.38302		66.22000		324.00000 
 43692.65567		 896.72350			42795.93217		177.74000		875.00000 
 43692.65567		 305.27265			43387.38302		66.22000		324.00000 
 43692.65567		 896.72350			42795.93217		177.74000		875.00000 
 43692.65567		 305.27265			43387.38302		66.22000		324.00000 
 43692.65567		 896.72350			42795.93217		177.74000		875.00000 
 43692.65567		 305.27265			43387.38302		66.22000		324.00000 
 43692.65567		 896.72350			42795.93217		177.74000		875.00000 
 43692.65567		 305.27265			43387.38302		66.22000		324.00000 
 43692.65567		 896.72350			42795.93217		177.74000		875.00000 
 43692.65567		 305.27265			43387.38302		66.22000		324.00000 
 43692.65567		 896.72350			42795.93217		177.74000		875.00000 
 43692.65567		 305.27265			43387.38302		66.22000		324.00000 
 43692.65567		 896.72350			42795.93217		177.74000		875.00000 
 43692.65567		 305.27265			43387.38302		66.22000		324.00000 
 43692.65567		 896.72350			42795.93217		177.74000		875.00000 
 43692.65567		 305.27265			43387.38302		66.22000		324.00000 
 43692.65567		 896.72350			42795.93217		210.91000		875.00000 
 43692.65567		 305.27265			43387.38302		66.22000		324.00000 
 43692.65567		 896.72350			42795.93217		210.91000		875.00000 
 43692.65567		 305.27265			43387.38302		66.22000		324.00000 
 43692.65567		 896.72350			42795.93217		210.91000		875.00000 
 43692.65567		 305.27265			43387.38302		66.22000		324.00000 
 43692.65567		 896.72350			42795.93217		210.91000		875.00000 
 43692.65567		 305.27265			43387.38302		66.22000		324.00000 
 43692.65567		 896.72350			42795.93217		210.91000		875.00000 
 43692.65567		 305.27265			43387.38302		66.22000		324.00000 
 43692.65567		 896.72350			42795.93217		210.91000		875.00000 
 43692.65567		 305.27265			43387.38302		66.22000		324.00000 
 43692.65567		 896.72350			42795.93217		210.91000		875.00000 
 43692.65567		 305.27265			43387.38302		66.22000		324.00000 
 43692.65567		 896.72350			42795.93217		210.91000		875.00000 
 43692.65567		 305.27265			43387.38302		66.22000		324.00000 
 43692.65567		 896.72350			42795.93217		210.91000		875.00000 
 43692.65567		 305.27265			43387.38302		66.22000		324.00000 
 43692.65567		 896.72350			42795.93217		210.91000		875.00000 
 43692.65567		 305.27265			43387.38302		66.22000		324.00000 
 43692.65567		 896.72350			42795.93217		210.91000		875.00000 
 43692.65567		 305.27265			43387.38302		66.22000		324.00000 
 43692.65567		 896.72350			42795.93217		210.91000		875.00000 
 43692.65567		 305.27265			43387.38302		66.22000		324.00000 
 43692.65567		 896.72350			42795.93217		210.91000		875.00000 
 43692.65567		 305.27265			43387.38302		66.22000		324.00000 
 43692.65567		 896.72350			42795.93217		210.91000		875.00000 
 43692.65567		 305.27265			43387.38302		66.22000		324.00000 
 43692.65567		 896.72350			42795.93217		210.91000		875.00000 
 43692.65567		 305.27265			43387.38302		66.22000		324.00000 
 43692.65567		 896.72350			42795.93217		210.91000		875.00000 
 43692.65567		 305.27265			43387.38302		66.22000		324.00000 
 43692.65567		 896.72350			42795.93217		210.91000		875.00000 
 43692.65567		 305.27265			43387.38302		66.22000		324.00000 
 43692.65567		 896.72350			42795.93217		210.91000		875.00000 
 43692.65567		 305.27265			43387.38302		66.22000		324.00000 
 43692.65567		 896.72350			42795.93217		210.91000		875.00000 
 43692.65567		 305.27265			43387.38302		66.22000		324.00000 
 43692.65567		 896.72350			42795.93217		210.91000		875.00000 
 43692.65567		 305.27265			43387.38302		66.22000		324.00000 
 43692.65567		 896.72350			42795.93217		210.91000		875.00000 
 43692.65567		 305.27265			43387.38302		66.22000		324.00000 
 43692.65567		 896.72350			42795.93217		210.91000		875.00000 
 43692.65567		 305.27265			43387.38302		66.22000		324.00000 
 43692.65567		 896.72350			42795.93217		210.91000		875.00000 
 43692.65567		 305.27265			43387.38302		66.22000		324.00000 
 43692.65567		 896.72350			42795.93217		210.91000		875.00000 
 43692.65567		 305.27265			43387.38302		66.22000		324.00000 
 43692.65567		 896.72350			42795.93217		210.91000		875.00000 
 43692.65567		 305.27265			43387.38302		66.22000		324.00000 
 43692.65567		 896.72350			42795.93217		210.91000		875.00000 
 43692.65567		 305.27265			43387.38302		66.22000		324.00000 
 43692.65567		 896.72350			42795.93217		210.91000		875.00000 
 43692.65567		 305.27265			43387.38302		66.22000		324.00000 
 43692.65567		 896.72350			42795.93217		210.91000		875.00000 
 43692.65567		 305.27265			43387.38302		66.22000		324.00000 
 43692.65567		 896.72350			42795.93217		210.91000		875.00000 
 43692.65567		 305.27265			43387.38302		66.22000		324.00000 
 43692.65567		 896.72350			42795.93217		210.91000		875.00000 
 43692.65567		 305.27265			43387.38302		66.22000		324.00000 
 43692.65567		 896.72350			42795.93217		210.91000		875.00000 
 43692.65567		 305.27265			43387.38302		66.22000		324.00000 
 43692.65567		 896.72350			42795.93217		210.91000		875.00000 
 43692.65567		 305.27265			43387.38302		66.22000		324.00000 
 43692.65567		 896.72350			42795.93217		210.91000		875.00000 
 43692.65567		 305.27265			43387.38302		66.22000		324.00000 
 43692.65567		 896.72350			42795.93217		210.91000		875.00000 
 43692.65567		 305.27265			43387.38302		66.22000		324.00000 
 43692.65567		 896.72350			42795.93217		210.91000		875.00000 
 43692.65567		 305.27265			43387.38302		66.22000		324.00000 
 43692.65567		 896.72350			42795.93217		210.91000		875.00000 
 43692.65567		 305.27265			43387.38302		66.22000		324.00000 
 43692.65567		 896.72350			42795.93217		210.91000		875.00000 
 43692.65567		 305.27265			43387.38302		66.22000		324.00000 
 43692.65567		 896.72350			42795.93217		210.91000		875.00000 
 43692.65567		 305.27265			43387.38302		66.22000		324.00000 
 43692.65567		 896.72350			42795.93217		210.91000		875.00000 
 43692.65567		 305.27265			43387.38302		66.22000		324.00000 
 43692.65567		 896.72350			42795.93217		210.91000		875.00000 
 43692.65567		 305.27265			43387.38302		66.22000		324.00000 
 43692.65567		 896.72350			42795.93217		210.91000		875.00000 
 43692.65567		 305.27265			43387.38302		66.22000		324.00000 
 43692.65567		 896.72350			42795.93217		210.91000		875.00000 
 43692.65567		 305.27265			43387.38302		66.22000		324.00000 
 43692.65567		 896.72350			42795.93217		210.91000		875.00000 
 43692.65567		 305.27265			43387.38302		66.22000		324.00000 
 43692.65567		 896.72350			42795.93217		210.91000		875.00000 
 43692.65567		 305.27265			43387.38302		66.22000		324.00000 
 43692.65567		 896.72350			42795.93217		210.91000		875.00000 
 43692.65567		 305.27265			43387.38302		66.22000		324.00000 
 43692.65567		 896.72350			42795.93217		210.91000		875.00000 
 43692.65567		 305.27265			43387.38302		66.22000		324.00000 
 43692.65567		 896.72350			42795.93217		210.91000		875.00000 
 43692.65567		 305.27265			43387.38302		66.22000		324.00000 
 43692.65567		 896.72350			42795.93217		210.91000		875.00000 
 43692.65567		 305.27265			43387.38302		66.22000		324.00000 
 43692.65567		 896.72350			42795.93217		210.91000		875.00000 
 43692.65567		 305.27265			43387.38302		66.22000		324.00000 
 43692.65567		 896.72350			42795.93217		210.91000		875.00000 
 43692.65567		 305.27265			43387.38302		66.22000		324.00000 
 43692.65567		 896.72350			42795.93217		210.91000		875.00000 
 43692.65567		 305.27265			43387.38302		66.22000		324.00000 
 43692.65567		 896.72350			42795.93217		210.91000		875.00000 
 43692.65567		 305.27265			43387.38302		66.22000		324.00000 
 43692.65567		 896.72350			42795.93217		210.91000		875.00000 
 43692.65567		 305.27265			43387.38302		66.22000		324.00000 
 43692.65567		 896.72350			42795.93217		210.91000		875.00000 
 43692.65567		 305.27265			43387.38302		66.22000		324.00000 
 43692.65567		 896.72350			42795.93217		210.91000		875.00000 
 43692.65567		 305.27265			43387.38302		66.22000		324.00000 
 43692.65567		 896.72350			42795.93217		210.91000		875.00000 
 43692.65567		 305.27265			43387.38302		66.22000		324.00000 
 43692.65567		 896.72350			42795.93217		210.91000		875.00000 
 43692.65567		 305.27265			43387.38302		66.22000		324.00000 
 43692.65567		 896.72350			42795.93217		210.91000		875.00000 
 43692.65567		 305.27265			43387.38302		66.22000		324.00000 
 43692.65567		 896.72350			42795.93217		210.91000		875.00000 
 43692.65567		 305.27265			43387.38302		66.22000		324.00000 
 43692.65567		 896.72350			42795.93217		210.91000		875.00000 
 43692.65567		 305.27265			43387.38302		66.22000		324.00000 
 43692.65567		 896.72350			42795.93217		210.91000		875.00000 
 43692.65567		 305.27265			43387.38302		66.22000		324.00000 
 43692.65567		 896.72350			42795.93217		210.91000		875.00000 
 43692.65567		 305.27265			43387.38302		66.22000		324.00000 
 43692.65567		 896.72350			42795.93217		210.91000		875.00000 
 43692.65567		 305.27265			43387.38302		66.22000		324.00000 
 43692.65567		 896.72350			42795.93217		210.91000		875.00000 
 43692.65567		 305.27265			43387.38302		66.22000		324.00000 
 43692.65567		 896.72350			42795.93217		223.17800		875.00000 
 43692.65567		 305.27265			43387.38302		66.22000		324.00000 
 43692.65567		 896.72350			42795.93217		223.17800		875.00000 
 43692.65567		 305.27265			43387.38302		66.22000		324.00000 
 43692.65567		 896.72350			42795.93217		223.17800		875.00000 
 43692.65567		 305.27265			43387.38302		66.22000		324.00000 
 43692.65567		 896.72350			42795.93217		223.17800		875.00000 
 43692.65567		 305.27265			43387.38302		66.22000		324.00000 
 43692.65567		 896.72350			42795.93217		223.17800		875.00000 
 43692.65567		 305.27265			43387.38302		66.22000		324.00000 
 43692.65567		 896.72350			42795.93217		223.17800		875.00000 
 43692.65567		 305.27265			43387.38302		66.22000		324.00000 
 43692.65567		 896.72350			42795.93217		223.17800		875.00000 
 43692.65567		 305.27265			43387.38302		66.22000		324.00000 
 43692.65567		 896.72350			42795.93217		223.17800		875.00000 
 43692.65567		 305.27265			43387.38302		66.22000		324.00000 
 43692.65567		 896.72350			42795.93217		223.17800		875.00000 
 43692.65567		 305.27265			43387.38302		66.22000		324.00000 
 43692.65567		 896.72350			42795.93217		223.17800		875.00000 
 43692.65567		 305.27265			43387.38302		66.22000		324.00000 
 43692.65567		 896.72350			42795.93217		223.17800		875.00000 
 43692.65567		 305.27265			43387.38302		66.22000		324.00000 
 43692.65567		 896.72350			42795.93217		223.17800		875.00000 
 43692.65567		 305.27265			43387.38302		66.22000		324.00000 
 43692.65567		 896.72350			42795.93217		223.17800		875.00000 
 43692.65567		 305.27265			43387.38302		66.22000		324.00000 
 43692.65567		 896.72350			42795.93217		223.17800		875.00000 
 43692.65567		 305.27265			43387.38302		66.22000		324.00000 
 43692.65567		 896.72350			42795.93217		223.17800		875.00000 
 43692.65567		 305.27265			43387.38302		66.22000		324.00000 
 43692.65567		 896.72350			42795.93217		223.17800		875.00000 
 43692.65567		 305.27265			43387.38302		66.22000		324.00000 
 43692.65567		 896.72350			42795.93217		223.17800		875.00000 
 43692.65567		 305.27265			43387.38302		66.22000		324.00000 
 43692.65567		 896.72350			42795.93217		223.17800		875.00000 
 43692.65567		 305.27265			43387.38302		66.22000		324.00000 
 43692.65567		 896.72350			42795.93217		223.17800		875.00000 
 43692.65567		 305.27265			43387.38302		66.22000		324.00000 
 43692.65567		 896.72350			42795.93217		223.17800		875.00000 
 43692.65567		 305.27265			43387.38302		66.22000		324.00000 
 43692.65567		 896.72350			42795.93217		223.17800		875.00000 
 43692.65567		 305.27265			43387.38302		66.22000		324.00000 
 43692.65567		 896.72350			42795.93217		223.17800		875.00000 
 43692.65567		 305.27265			43387.38302		66.22000		324.00000 
 43692.65567		 896.72350			42795.93217		223.17800		875.00000 
 43692.65567		 305.27265			43387.38302		66.22000		324.00000 
 43692.65567		 896.72350			42795.93217		223.17800		875.00000 
 43692.65567		 305.27265			43387.38302		66.22000		324.00000 
 43692.65567		 896.72350			42795.93217		223.17800		875.00000 
 43692.65567		 305.27265			43387.38302		66.22000		324.00000 
 43692.65567		 896.72350			42795.93217		223.17800		875.00000 
 43692.65567		 305.27265			43387.38302		66.22000		324.00000 
 43692.65567		 896.72350			42795.93217		223.17800		875.00000 
 43692.65567		 305.27265			43387.38302		66.22000		324.00000 
 43692.65567		 896.72350			42795.93217		223.17800		875.00000 
 43692.65567		 305.27265			43387.38302		66.22000		324.00000 
 43692.65567		 896.72350			42795.93217		223.17800		875.00000 
 43692.65567		 305.27265			43387.38302		66.22000		324.00000 
 43692.65567		 896.72350			42795.93217		223.17800		875.00000 
 43692.65567		 305.27265			43387.38302		66.22000		324.00000 
 43692.65567		 896.72350			42795.93217		223.17800		875.00000 
 43692.65567		 305.27265			43387.38302		66.22000		324.00000 
 43692.65567		 896.72350			42795.93217		223.17800		875.00000 
 43692.65567		 305.27265			43387.38302		66.22000		324.00000 
 43692.65567		 896.72350			42795.93217		223.17800		875.00000 
 43692.65567		 305.27265			43387.38302		66.22000		324.00000 
 43692.65567		 896.72350			42795.93217		223.17800		875.00000 
 43692.65567		 305.27265			43387.38302		66.22000		324.00000 
 43692.65567		 896.72350			42795.93217		223.17800		875.00000 
 43692.65567		 305.27265			43387.38302		66.22000		324.00000 
 43692.65567		 896.72350			42795.93217		223.17800		875.00000 
 43692.65567		 305.27265			43387.38302		66.22000		324.00000 
 43692.65567		 896.72350			42795.93217		223.17800		875.00000 
 43692.65567		 305.27265			43387.38302		66.22000		324.00000 
 43692.65567		 896.72350			42795.93217		223.17800		875.00000 
 43692.65567		 305.27265			43387.38302		66.22000		324.00000 
 43692.65567		 896.72350			42795.93217		223.17800		875.00000 
 43692.65567		 305.27265			43387.38302		66.22000		324.00000 
 43692.65567		 896.72350			42795.93217		223.17800		875.00000 
 43692.65567		 305.27265			43387.38302		66.22000		324.00000 
 43692.65567		 896.72350			42795.93217		223.17800		875.00000 
 43692.65567		 305.27265			43387.38302		66.22000		324.00000 
 43692.65567		 896.72350			42795.93217		223.17800		875.00000 
 43692.65567		 305.27265			43387.38302		66.22000		324.00000 
 43692.65567		 896.72350			42795.93217		223.17800		875.00000 
 43692.65567		 305.27265			43387.38302		66.22000		324.00000 
 43692.65567		 896.72350			42795.93217		223.17800		875.00000 
 43692.65567		 305.27265			43387.38302		66.22000		324.00000 
 43692.65567		 896.72350			42795.93217		223.17800		875.00000 
 43692.65567		 305.27265			43387.38302		66.22000		324.00000 
 43692.65567		 896.72350			42795.93217		223.17800		875.00000 
 43692.65567		 305.27265			43387.38302		66.22000		324.00000 
 43692.65567		 896.72350			42795.93217		223.17800		875.00000 
 43692.65567		 305.27265			43387.38302		66.22000		324.00000 
 43692.65567		 896.72350			42795.93217		223.17800		875.00000 
 43692.65567		 305.27265			43387.38302		66.22000		324.00000 
 43692.65567		 896.72350			42795.93217		223.17800		875.00000 
 43692.65567		 305.27265			43387.38302		66.22000		324.00000 
 43692.65567		 896.72350			42795.93217		223.17800		875.00000 
 43692.65567		 305.27265			43387.38302		66.22000		324.00000 
 43692.65567		 896.72350			42795.93217		223.17800		875.00000 
 43692.65567		 305.27265			43387.38302		66.22000		324.00000 
 43692.65567		 896.72350			42795.93217		223.17800		875.00000 
 43692.65567		 305.27265			43387.38302		66.22000		324.00000 
 43692.65567		 896.72350			42795.93217		223.17800		875.00000 
 43692.65567		 305.27265			43387.38302		66.22000		324.00000 
 43692.65567		 896.72350			42795.93217		223.17800		875.00000 
 43692.65567		 305.27265			43387.38302		66.22000		324.00000 
 43692.65567		 896.72350			42795.93217		223.17800		875.00000 
 43692.65567		 305.27265			43387.38302		66.22000		324.00000 
 43692.65567		 896.72350			42795.93217		223.17800		875.00000 
 43692.65567		 305.27265			43387.38302		66.22000		324.00000 
 43692.65567		 896.72350			42795.93217		223.17800		875.00000 
 43692.65567		 305.27265			43387.38302		66.22000		324.00000 
 43692.65567		 896.72350			42795.93217		223.17800		875.00000 
 43692.65567		 305.27265			43387.38302		66.22000		324.00000 
 43692.65567		 896.72350			42795.93217		223.17800		875.00000 
 43692.65567		 305.27265			43387.38302		66.22000		324.00000 
 43692.65567		 896.72350			42795.93217		223.17800		875.00000 
 43692.65567		 305.27265			43387.38302		66.22000		324.00000 
 43692.65567		 896.72350			42795.93217		223.17800		875.00000 
 43692.65567		 305.27265			43387.38302		66.22000		324.00000 
 43692.65567		 896.72350			42795.93217		223.17800		875.00000 
 43692.65567		 305.27265			43387.38302		66.22000		324.00000 
 43692.65567		 896.72350			42795.93217		223.17800		875.00000 
 43692.65567		 305.27265			43387.38302		66.22000		324.00000 
 43692.65567		 896.72350			42795.93217		223.17800		875.00000 
 43692.65567		 305.27265			43387.38302		66.22000		324.00000 
 43692.65567		 896.72350			42795.93217		227.26600		875.00000 
 43692.65567		 305.27265			43387.38302		66.22000		324.00000 
 43692.65567		 896.72350			42795.93217		227.26600		875.00000 
 43692.65567		 305.27265			43387.38302		66.22000		324.00000 
 43692.65567		 896.72350			42795.93217		227.26600		875.00000 
 43692.65567		 305.27265			43387.38302		66.22000		324.00000 
 43692.65567		 896.72350			42795.93217		227.26600		875.00000 
 43692.65567		 305.27265			43387.38302		66.22000		324.00000 
 43692.65567		 896.72350			42795.93217		227.26600		875.00000 
 43692.65567		 305.27265			43387.38302		66.22000		324.00000 
 43692.65567		 896.72350			42795.93217		227.26600		875.00000 
 43692.65567		 305.27265			43387.38302		66.22000		324.00000 
 43692.65567		 896.72350			42795.93217		227.26600		875.00000 
 43692.65567		 305.27265			43387.38302		66.22000		324.00000 
 43692.65567		 896.72350			42795.93217		227.26600		875.00000 
 43692.65567		 305.27265			43387.38302		66.22000		324.00000 
 43692.65567		 896.72350			42795.93217		227.26600		875.00000 
 43692.65567		 305.27265			43387.38302		66.22000		324.00000 
 43692.65567		 896.72350			42795.93217		227.26600		875.00000 
 43692.65567		 305.27265			43387.38302		66.22000		324.00000 
 43692.65567		 896.72350			42795.93217		227.26600		875.00000 
 43692.65567		 305.27265			43387.38302		66.22000		324.00000 
 43692.65567		 896.72350			42795.93217		227.26600		875.00000 
 43692.65567		 305.27265			43387.38302		66.22000		324.00000 
 43692.65567		 896.72350			42795.93217		227.26600		875.00000 
 43692.65567		 305.27265			43387.38302		66.22000		324.00000 
 43692.65567		 896.72350			42795.93217		227.26600		875.00000 
 43692.65567		 305.27265			43387.38302		66.22000		324.00000 
 43692.65567		 896.72350			42795.93217		227.26600		875.00000 
 43692.65567		 305.27265			43387.38302		66.22000		324.00000 
 43692.65567		 896.72350			42795.93217		227.26600		875.00000 
 43692.65567		 305.27265			43387.38302		66.22000		324.00000 
 43692.65567		 896.72350			42795.93217		227.26600		875.00000 
 43692.65567		 305.27265			43387.38302		66.22000		324.00000 
 43692.65567		 896.72350			42795.93217		227.26600		875.00000 
 43692.65567		 305.27265			43387.38302		66.22000		324.00000 
 43692.65567		 896.72350			42795.93217		227.26600		875.00000 
 43692.65567		 305.27265			43387.38302		66.22000		324.00000 
 43692.65567		 896.72350			42795.93217		227.26600		875.00000 
 43692.65567		 305.27265			43387.38302		66.22000		324.00000 
 43692.65567		 896.72350			42795.93217		227.26600		875.00000 
 43692.65567		 305.27265			43387.38302		66.22000		324.00000 
 43692.65567		 896.72350			42795.93217		227.26600		875.00000 
 43692.65567		 305.27265			43387.38302		66.22000		324.00000 
 43692.65567		 896.72350			42795.93217		227.26600		875.00000 
 43692.65567		 305.27265			43387.38302		66.22000		324.00000 
 43692.65567		 896.72350			42795.93217		227.26600		875.00000 
 43692.65567		 305.27265			43387.38302		66.22000		324.00000 
 43692.65567		 896.72350			42795.93217		227.26600		875.00000 
 43692.65567		 305.27265			43387.38302		66.22000		324.00000 
 43692.65567		 896.72350			42795.93217		227.26600		875.00000 
 43692.65567		 305.27265			43387.38302		66.22000		324.00000 
 43692.65567		 896.72350			42795.93217		227.26600		875.00000 
 43692.65567		 305.27265			43387.38302		66.22000		324.00000 
 43692.65567		 896.72350			42795.93217		227.26600		875.00000 
 43692.65567		 305.27265			43387.38302		66.22000		324.00000 
 43692.65567		 896.72350			42795.93217		227.26600		875.00000 
 43692.65567		 305.27265			43387.38302		66.22000		324.00000 
 43692.65567		 896.72350			42795.93217		227.26600		875.00000 
 43692.65567		 305.27265			43387.38302		66.22000		324.00000 
 43692.65567		 896.72350			42795.93217		227.26600		875.00000 
 43692.65567		 305.27265			43387.38302		66.22000		324.00000 
 43692.65567		 896.72350			42795.93217		227.26600		875.00000 
 43692.65567		 305.27265			43387.38302		66.22000		324.00000 
 43692.65567		 896.72350			42795.93217		227.26600		875.00000 
 43692.65567		 305.27265			43387.38302		66.22000		324.00000 
 43692.65567		 896.72350			42795.93217		227.26600		875.00000 
 43692.65567		 305.27265			43387.38302		66.22000		324.00000 
 43692.65567		 896.72350			42795.93217		227.26600		875.00000 
 43692.65567		 305.27265			43387.38302		66.22000		324.00000 
 43692.65567		 896.72350			42795.93217		227.26600		875.00000 
 43692.65567		 305.27265			43387.38302		66.22000		324.00000 
 43692.65567		 896.72350			42795.93217		227.26600		875.00000 
 43692.65567		 305.27265			43387.38302		66.22000		324.00000 
 43692.65567		 896.72350			42795.93217		227.26600		875.00000 
 43692.65567		 305.27265			43387.38302		66.22000		324.00000 
 43692.65567		 896.72350			42795.93217		227.26600		875.00000 
 43692.65567		 305.27265			43387.38302		66.22000		324.00000 
 43692.65567		 896.72350			42795.93217		227.26600		875.00000 
 43692.65567		 305.27265			43387.38302		66.22000		324.00000 
 43692.65567		 896.72350			42795.93217		227.26600		875.00000 
 43692.65567		 305.27265			43387.38302		66.22000		324.00000 
 43692.65567		 896.72350			42795.93217		227.26600		875.00000 
 43692.65567		 305.27265			43387.38302		66.22000		324.00000 
 43692.65567		 896.72350			42795.93217		227.26600		875.00000 
 43692.65567		 305.27265			43387.38302		66.22000		324.00000 
 43692.65567		 896.72350			42795.93217		227.26600		875.00000 
 43692.65567		 305.27265			43387.38302		66.22000		324.00000 
 43692.65567		 896.72350			42795.93217		227.26600		875.00000 
 43692.65567		 305.27265			43387.38302		66.22000		324.00000 
 43692.65567		 896.72350			42795.93217		227.26600		875.00000 
 43692.65567		 305.27265			43387.38302		66.22000		324.00000 
 43692.65567		 896.72350			42795.93217		227.26600		875.00000 
 43692.65567		 305.27265			43387.38302		66.22000		324.00000 
 43692.65567		 896.72350			42795.93217		227.26600		875.00000 
 43692.65567		 305.27265			43387.38302		66.22000		324.00000 
 43692.65567		 896.72350			42795.93217		227.26600		875.00000 
 43692.65567		 305.27265			43387.38302		66.22000		324.00000 
 43692.65567		 896.72350			42795.93217		227.26600		875.00000 
 43692.65567		 305.27265			43387.38302		66.22000		324.00000 
 43692.65567		 896.72350			42795.93217		227.26600		875.00000 
 43692.65567		 305.27265			43387.38302		66.22000		324.00000 
 43692.65567		 896.72350			42795.93217		227.26600		875.00000 
 43692.65567		 305.27265			43387.38302		66.22000		324.00000 
 43692.65567		 896.72350			42795.93217		227.26600		875.00000 
 43692.65567		 305.27265			43387.38302		66.22000		324.00000 
 43692.65567		 896.72350			42795.93217		227.26600		875.00000 
 43692.65567		 305.27265			43387.38302		66.22000		324.00000 
 43692.65567		 896.72350			42795.93217		227.26600		875.00000 
 43692.65567		 305.27265			43387.38302		66.22000		324.00000 
 43692.65567		 896.72350			42795.93217		227.26600		875.00000 
 43692.65567		 305.27265			43387.38302		66.22000		324.00000 
 43692.65567		 896.72350			42795.93217		227.26600		875.00000 
 43692.65567		 305.27265			43387.38302		66.22000		324.00000 
 43692.65567		 896.72350			42795.93217		227.26600		875.00000 
 43692.65567		 305.27265			43387.38302		66.22000		324.00000 
 43692.65567		 896.72350			42795.93217		227.26600		875.00000 
 43692.65567		 305.27265			43387.38302		66.22000		324.00000 
 43692.65567		 896.72350			42795.93217		227.26600		875.00000 
 43692.65567		 305.27265			43387.38302		66.22000		324.00000 
 43692.65567		 896.72350			42795.93217		227.26600		875.00000 
 43692.65567		 305.27265			43387.38302		66.22000		324.00000 
 43692.65567		 896.72350			42795.93217		227.26600		875.00000 
 43692.65567		 305.27265			43387.38302		66.22000		324.00000 
 43692.65567		 896.72350			42795.93217		227.26600		875.00000 
 43692.65567		 305.27265			43387.38302		66.22000		324.00000 
 43692.65567		 896.72350			42795.93217		227.26600		875.00000 
 43692.65567		 305.27265			43387.38302		66.22000		324.00000 
 43692.65567		 896.72350			42795.93217		228.67800		875.00000 
 43692.65567		 305.27265			43387.38302		66.22000		324.00000 
 43692.65567		 896.72350			42795.93217		228.67800		875.00000 
 43692.65567		 305.27265			43387.38302		66.22000		324.00000 
 43692.65567		 896.72350			42795.93217		228.67800		875.00000 
 43692.65567		 305.27265			43387.38302		66.22000		324.00000 
 43692.65567		 896.72350			42795.93217		228.67800		875.00000 
 43692.65567		 305.27265			43387.38302		66.22000		324.00000 
 43692.65567		 896.72350			42795.93217		228.67800		875.00000 
 43692.65567		 305.27265			43387.38302		66.22000		324.00000 
 43692.65567		 896.72350			42795.93217		228.67800		875.00000 
 43692.65567		 305.27265			43387.38302		66.22000		324.00000 
 43692.65567		 896.72350			42795.93217		228.67800		875.00000 
 43692.65567		 305.27265			43387.38302		66.22000		324.00000 
 43692.65567		 896.72350			42795.93217		228.67800		875.00000 
 43692.65567		 305.27265			43387.38302		66.22000		324.00000 
 43692.65567		 896.72350			42795.93217		228.67800		875.00000 
 43692.65567		 305.27265			43387.38302		66.22000		324.00000 
 43692.65567		 896.72350			42795.93217		228.67800		875.00000 
 43692.65567		 305.27265			43387.38302		66.22000		324.00000 
 43692.65567		 896.72350			42795.93217		228.67800		875.00000 
 43692.65567		 305.27265			43387.38302		66.22000		324.00000 
 43692.65567		 896.72350			42795.93217		228.67800		875.00000 
 43692.65567		 305.27265			43387.38302		66.22000		324.00000 
 43692.65567		 896.72350			42795.93217		228.67800		875.00000 
 43692.65567		 305.27265			43387.38302		66.22000		324.00000 
 43692.65567		 896.72350			42795.93217		228.67800		875.00000 
 43692.65567		 305.27265			43387.38302		66.22000		324.00000 
 43692.65567		 896.72350			42795.93217		228.67800		875.00000 
 43692.65567		 305.27265			43387.38302		66.22000		324.00000 
 43692.65567		 896.72350			42795.93217		228.67800		875.00000 
 43692.65567		 305.27265			43387.38302		66.22000		324.00000 
 43692.65567		 896.72350			42795.93217		228.67800		875.00000 
 43692.65567		 305.27265			43387.38302		66.22000		324.00000 
 43692.65567		 896.72350			42795.93217		228.67800		875.00000 
 43692.65567		 305.27265			43387.38302		66.22000		324.00000 
 43692.65567		 896.72350			42795.93217		228.67800		875.00000 
 43692.65567		 305.27265			43387.38302		66.22000		324.00000 
 43692.65567		 896.72350			42795.93217		228.67800		875.00000 
 43692.65567		 305.27265			43387.38302		66.22000		324.00000 
 43692.65567		 896.72350			42795.93217		228.67800		875.00000 
 43692.65567		 305.27265			43387.38302		66.22000		324.00000 
 43692.65567		 896.72350			42795.93217		228.67800		875.00000 
 43692.65567		 305.27265			43387.38302		66.22000		324.00000 
 43692.65567		 896.72350			42795.93217		228.67800		875.00000 
 43692.65567		 305.27265			43387.38302		66.22000		324.00000 
 43692.65567		 896.72350			42795.93217		228.67800		875.00000 
 43692.65567		 305.27265			43387.38302		66.22000		324.00000 
 43692.65567		 896.72350			42795.93217		228.67800		875.00000 
 43692.65567		 305.27265			43387.38302		66.22000		324.00000 
 43692.65567		 896.72350			42795.93217		228.67800		875.00000 
 43692.65567		 305.27265			43387.38302		66.22000		324.00000 
 43692.65567		 896.72350			42795.93217		228.67800		875.00000 
 43692.65567		 305.27265			43387.38302		66.22000		324.00000 
 43692.65567		 896.72350			42795.93217		228.67800		875.00000 
 43692.65567		 305.27265			43387.38302		66.22000		324.00000 
 43692.65567		 896.72350			42795.93217		228.67800		875.00000 
 43692.65567		 305.27265			43387.38302		66.22000		324.00000 
 43692.65567		 896.72350			42795.93217		228.67800		875.00000 
 43692.65567		 305.27265			43387.38302		66.22000		324.00000 
 43692.65567		 896.72350			42795.93217		228.67800		875.00000 
 43692.65567		 305.27265			43387.38302		66.22000		324.00000 
 43692.65567		 896.72350			42795.93217		228.67800		875.00000 
 43692.65567		 305.27265			43387.38302		66.22000		324.00000 
 43692.65567		 896.72350			42795.93217		228.67800		875.00000 
 43692.65567		 305.27265			43387.38302		66.22000		324.00000 
 43692.65567		 896.72350			42795.93217		228.67800		875.00000 
 43692.65567		 305.27265			43387.38302		66.22000		324.00000 
 43692.65567		 896.72350			42795.93217		228.67800		875.00000 
 43692.65567		 305.27265			43387.38302		66.22000		324.00000 
 43692.65567		 896.72350			42795.93217		228.67800		875.00000 
 43692.65567		 305.27265			43387.38302		66.22000		324.00000 
 43692.65567		 896.72350			42795.93217		228.67800		875.00000 
 43692.65567		 305.27265			43387.38302		66.22000		324.00000 
 43692.65567		 896.72350			42795.93217		228.67800		875.00000 
 43692.65567		 305.27265			43387.38302		66.22000		324.00000 
 43692.65567		 896.72350			42795.93217		228.67800		875.00000 
 43692.65567		 305.27265			43387.38302		66.22000		324.00000 
 43692.65567		 896.72350			42795.93217		228.67800		875.00000 
 43692.65567		 305.27265			43387.38302		66.22000		324.00000 
 43692.65567		 896.72350			42795.93217		228.67800		875.00000 
 43692.65567		 305.27265			43387.38302		66.22000		324.00000 
 43692.65567		 896.72350			42795.93217		228.67800		875.00000 
 43692.65567		 305.27265			43387.38302		66.22000		324.00000 
 43692.65567		 896.72350			42795.93217		228.67800		875.00000 
 43692.65567		 305.27265			43387.38302		66.22000		324.00000 
 43692.65567		 896.72350			42795.93217		228.67800		875.00000 
 43692.65567		 305.27265			43387.38302		66.22000		324.00000 
 43692.65567		 896.72350			42795.93217		228.67800		875.00000 
 43692.65567		 305.27265			43387.38302		66.22000		324.00000 
 43692.65567		 896.72350			42795.93217		228.67800		875.00000 
 43692.65567		 305.27265			43387.38302		66.22000		324.00000 
 43692.65567		 896.72350			42795.93217		228.67800		875.00000 
 43692.65567		 305.27265			43387.38302		66.22000		324.00000 
 43692.65567		 896.72350			42795.93217		228.67800		875.00000 
 43692.65567		 305.27265			43387.38302		66.22000		324.00000 
 43692.65567		 896.72350			42795.93217		228.67800		875.00000 
 43692.65567		 305.27265			43387.38302		66.22000		324.00000 
 43692.65567		 896.72350			42795.93217		228.67800		875.00000 
 43692.65567		 305.27265			43387.38302		66.22000		324.00000 
 43692.65567		 896.72350			42795.93217		228.67800		875.00000 
 43692.65567		 305.27265			43387.38302		66.22000		324.00000 
 43692.65567		 896.72350			42795.93217		228.67800		875.00000 
 43692.65567		 305.27265			43387.38302		66.22000		324.00000 
 43692.65567		 896.72350			42795.93217		228.67800		875.00000 
 43692.65567		 305.27265			43387.38302		66.22000		324.00000 
 43692.65567		 896.72350			42795.93217		228.67800		875.00000 
 43692.65567		 305.27265			43387.38302		66.22000		324.00000 
 43692.65567		 896.72350			42795.93217		228.67800		875.00000 
 43692.65567		 305.27265			43387.38302		66.22000		324.00000 
 43692.65567		 896.72350			42795.93217		228.67800		875.00000 
 43692.65567		 305.27265			43387.38302		66.22000		324.00000 
 43692.65567		 896.72350			42795.93217		228.67800		875.00000 
 43692.65567		 305.27265			43387.38302		66.22000		324.00000 
 43692.65567		 896.72350			42795.93217		228.67800		875.00000 
 43692.65567		 305.27265			43387.38302		66.22000		324.00000 
 43692.65567		 896.72350			42795.93217		228.67800		875.00000 
 43692.65567		 305.27265			43387.38302		66.22000		324.00000 
 43692.65567		 896.72350			42795.93217		228.67800		875.00000 
 43692.65567		 305.27265			43387.38302		66.22000		324.00000 
 43692.65567		 896.72350			42795.93217		228.67800		875.00000 
 43692.65567		 305.27265			43387.38302		66.22000		324.00000 
 43692.65567		 896.72350			42795.93217		228.67800		875.00000 
 43692.65567		 305.27265			43387.38302		66.22000		324.00000 
 43692.65567		 896.72350			42795.93217		228.67800		875.00000 
 43692.65567		 305.27265			43387.38302		66.22000		324.00000 
 43692.65567		 896.72350			42795.93217		228.67800		875.00000 
 43692.65567		 305.27265			43387.38302		66.22000		324.00000 
 43692.65567		 896.72350			42795.93217		228.67800		875.00000 
 43692.65567		 305.27265			43387.38302		66.22000		324.00000 
 43692.65567		 896.72350			42795.93217		229.89800		875.00000 
 43692.65567		 305.27265			43387.38302		66.22000		324.00000 
 43692.65567		 896.72350			42795.93217		229.89800		875.00000 
 43692.65567		 305.27265			43387.38302		66.22000		324.00000 
 43692.65567		 896.72350			42795.93217		229.89800		875.00000 
 43692.65567		 305.27265			43387.38302		66.22000		324.00000 
 43692.65567		 896.72350			42795.93217		229.89800		875.00000 
 43692.65567		 305.27265			43387.38302		66.22000		324.00000 
 43692.65567		 896.72350			42795.93217		229.89800		875.00000 
 43692.65567		 305.27265			43387.38302		66.22000		324.00000 
 43692.65567		 896.72350			42795.93217		229.89800		875.00000 
 43692.65567		 305.27265			43387.38302		66.22000		324.00000 
 43692.65567		 896.72350			42795.93217		229.89800		875.00000 
 43692.65567		 305.27265			43387.38302		66.22000		324.00000 
 43692.65567		 896.72350			42795.93217		229.89800		875.00000 
 43692.65567		 305.27265			43387.38302		66.22000		324.00000 
 43692.65567		 896.72350			42795.93217		229.89800		875.00000 
 43692.65567		 305.27265			43387.38302		66.22000		324.00000 
 43692.65567		 896.72350			42795.93217		229.89800		875.00000 
 43692.65567		 305.27265			43387.38302		66.22000		324.00000 
 43692.65567		 896.72350			42795.93217		229.89800		875.00000 
 43692.65567		 305.27265			43387.38302		66.22000		324.00000 
 43692.65567		 896.72350			42795.93217		229.89800		875.00000 
 43692.65567		 305.27265			43387.38302		66.22000		324.00000 
 43692.65567		 896.72350			42795.93217		229.89800		875.00000 
 43692.65567		 305.27265			43387.38302		66.22000		324.00000 
 43692.65567		 896.72350			42795.93217		229.89800		875.00000 
 43692.65567		 305.27265			43387.38302		66.22000		324.00000 
 43692.65567		 896.72350			42795.93217		229.89800		875.00000 
 43692.65567		 305.27265			43387.38302		66.22000		324.00000 
 43692.65567		 896.72350			42795.93217		229.89800		875.00000 
 43692.65567		 305.27265			43387.38302		66.22000		324.00000 
 43692.65567		 896.72350			42795.93217		229.89800		875.00000 
 43692.65567		 305.27265			43387.38302		66.22000		324.00000 
 43692.65567		 896.72350			42795.93217		229.89800		875.00000 
 43692.65567		 305.27265			43387.38302		66.22000		324.00000 
 43692.65567		 896.72350			42795.93217		229.89800		875.00000 
 43692.65567		 305.27265			43387.38302		66.22000		324.00000 
 43692.65567		 896.72350			42795.93217		229.89800		875.00000 
 43692.65567		 305.27265			43387.38302		66.22000		324.00000 
 43692.65567		 896.72350			42795.93217		229.89800		875.00000 
 43692.65567		 305.27265			43387.38302		66.22000		324.00000 
 43692.65567		 896.72350			42795.93217		229.89800		875.00000 
 43692.65567		 305.27265			43387.38302		66.22000		324.00000 
 43692.65567		 896.72350			42795.93217		229.89800		875.00000 
 43692.65567		 305.27265			43387.38302		66.22000		324.00000 
 43692.65567		 896.72350			42795.93217		229.89800		875.00000 
 43692.65567		 305.27265			43387.38302		66.22000		324.00000 
 43692.65567		 896.72350			42795.93217		229.89800		875.00000 
 43692.65567		 305.27265			43387.38302		66.22000		324.00000 
 43692.65567		 896.72350			42795.93217		229.89800		875.00000 
 43692.65567		 305.27265			43387.38302		66.22000		324.00000 
 43692.65567		 896.72350			42795.93217		229.89800		875.00000 
 43692.65567		 305.27265			43387.38302		66.22000		324.00000 
 43692.65567		 896.72350			42795.93217		229.89800		875.00000 
 43692.65567		 305.27265			43387.38302		66.22000		324.00000 
 43692.65567		 896.72350			42795.93217		229.89800		875.00000 
 43692.65567		 305.27265			43387.38302		66.22000		324.00000 
 43692.65567		 896.72350			42795.93217		229.89800		875.00000 
 43692.65567		 305.27265			43387.38302		66.22000		324.00000 
 43692.65567		 896.72350			42795.93217		229.89800		875.00000 
 43692.65567		 305.27265			43387.38302		66.22000		324.00000 
 43692.65567		 896.72350			42795.93217		229.89800		875.00000 
 43692.65567		 305.27265			43387.38302		66.22000		324.00000 
 43692.65567		 896.72350			42795.93217		229.89800		875.00000 
 43692.65567		 305.27265			43387.38302		66.22000		324.00000 
 43692.65567		 896.72350			42795.93217		229.89800		875.00000 
 43692.65567		 305.27265			43387.38302		66.22000		324.00000 
 43692.65567		 896.72350			42795.93217		229.89800		875.00000 
 43692.65567		 305.27265			43387.38302		66.22000		324.00000 
 43692.65567		 896.72350			42795.93217		229.89800		875.00000 
 43692.65567		 305.27265			43387.38302		66.22000		324.00000 
 43692.65567		 896.72350			42795.93217		229.89800		875.00000 
 43692.65567		 305.27265			43387.38302		66.22000		324.00000 
 43692.65567		 896.72350			42795.93217		229.89800		875.00000 
 43692.65567		 305.27265			43387.38302		66.22000		324.00000 
 43692.65567		 896.72350			42795.93217		229.89800		875.00000 
 43692.65567		 305.27265			43387.38302		66.22000		324.00000 
 43692.65567		 896.72350			42795.93217		229.89800		875.00000 
 43692.65567		 305.27265			43387.38302		66.22000		324.00000 
 43692.65567		 896.72350			42795.93217		229.89800		875.00000 
 43692.65567		 305.27265			43387.38302		66.22000		324.00000 
 43692.65567		 896.72350			42795.93217		229.89800		875.00000 
 43692.65567		 305.27265			43387.38302		66.22000		324.00000 
 43692.65567		 896.72350			42795.93217		229.89800		875.00000 
 43692.65567		 305.27265			43387.38302		66.22000		324.00000 
 43692.65567		 896.72350			42795.93217		229.89800		875.00000 
 43692.65567		 305.27265			43387.38302		66.22000		324.00000 
 43692.65567		 896.72350			42795.93217		229.89800		875.00000 
 43692.65567		 305.27265			43387.38302		66.22000		324.00000 
 43692.65567		 896.72350			42795.93217		229.89800		875.00000 
 43692.65567		 305.27265			43387.38302		66.22000		324.00000 
 43692.65567		 896.72350			42795.93217		229.89800		875.00000 
 43692.65567		 305.27265			43387.38302		66.22000		324.00000 
 43692.65567		 896.72350			42795.93217		229.89800		875.00000 
 43692.65567		 305.27265			43387.38302		66.22000		324.00000 
 43692.65567		 896.72350			42795.93217		229.89800		875.00000 
 43692.65567		 305.27265			43387.38302		66.22000		324.00000 
 43692.65567		 896.72350			42795.93217		229.89800		875.00000 
 43692.65567		 305.27265			43387.38302		66.22000		324.00000 
 43692.65567		 896.72350			42795.93217		229.89800		875.00000 
 43692.65567		 305.27265			43387.38302		66.22000		324.00000 
 43692.65567		 896.72350			42795.93217		229.89800		875.00000 
 43692.65567		 305.27265			43387.38302		66.22000		324.00000 
 43692.65567		 896.72350			42795.93217		229.89800		875.00000 
 43692.65567		 305.27265			43387.38302		66.22000		324.00000 
 43692.65567		 896.72350			42795.93217		229.89800		875.00000 
 43692.65567		 305.27265			43387.38302		66.22000		324.00000 
 43692.65567		 896.72350			42795.93217		229.89800		875.00000 
 43692.65567		 305.27265			43387.38302		66.22000		324.00000 
 43692.65567		 896.72350			42795.93217		229.89800		875.00000 
 43692.65567		 305.27265			43387.38302		66.22000		324.00000 
 43692.65567		 896.72350			42795.93217		229.89800		875.00000 
 43692.65567		 305.27265			43387.38302		66.22000		324.00000 
 43692.65567		 896.72350			42795.93217		229.89800		875.00000 
 43692.65567		 305.27265			43387.38302		66.22000		324.00000 
 43692.65567		 896.72350			42795.93217		229.89800		875.00000 
 43692.65567		 305.27265			43387.38302		66.22000		324.00000 
 43692.65567		 896.72350			42795.93217		229.89800		875.00000 
 43692.65567		 305.27265			43387.38302		66.22000		324.00000 
 43692.65567		 896.72350			42795.93217		229.89800		875.00000 
 43692.65567		 305.27265			43387.38302		66.22000		324.00000 
 43692.65567		 896.72350			42795.93217		229.89800		875.00000 
 43692.65567		 305.27265			43387.38302		66.22000		324.00000 
 43692.65567		 896.72350			42795.93217		229.89800		875.00000 
 43692.65567		 305.27265			43387.38302		66.22000		324.00000 
 43692.65567		 896.72350			42795.93217		229.89800		875.00000 
 43692.65567		 305.27265			43387.38302		66.22000		324.00000 
 43692.65567		 896.72350			42795.93217		229.54400		875.00000 
 43692.65567		 305.27265			43387.38302		66.22000		324.00000 
 43692.65567		 896.72350			42795.93217		229.54400		875.00000 
 43692.65567		 305.27265			43387.38302		66.22000		324.00000 
 43692.65567		 896.72350			42795.93217		229.54400		875.00000 
 43692.65567		 305.27265			43387.38302		66.22000		324.00000 
 43692.65567		 896.72350			42795.93217		229.54400		875.00000 
 43692.65567		 305.27265			43387.38302		66.22000		324.00000 
 43692.65567		 896.72350			42795.93217		229.54400		875.00000 
 43692.65567		 305.27265			43387.38302		66.22000		324.00000 
 43692.65567		 896.72350			42795.93217		229.54400		875.00000 
 43692.65567		 305.27265			43387.38302		66.22000		324.00000 
 43692.65567		 896.72350			42795.93217		229.54400		875.00000 
 43692.65567		 305.27265			43387.38302		66.22000		324.00000 
 43692.65567		 896.72350			42795.93217		229.54400		875.00000 
 43692.65567		 305.27265			43387.38302		66.22000		324.00000 
 43692.65567		 896.72350			42795.93217		229.54400		875.00000 
 43692.65567		 305.27265			43387.38302		66.22000		324.00000 
 43692.65567		 896.72350			42795.93217		229.54400		875.00000 
 43692.65567		 305.27265			43387.38302		66.22000		324.00000 
 43692.65567		 896.72350			42795.93217		229.54400		875.00000 
 43692.65567		 305.27265			43387.38302		66.22000		324.00000 
 43692.65567		 896.72350			42795.93217		229.54400		875.00000 
 43692.65567		 305.27265			43387.38302		66.22000		324.00000 
 43692.65567		 896.72350			42795.93217		229.54400		875.00000 
 43692.65567		 305.27265			43387.38302		66.22000		324.00000 
 43692.65567		 896.72350			42795.93217		229.54400		875.00000 
 43692.65567		 305.27265			43387.38302		66.22000		324.00000 
 43692.65567		 896.72350			42795.93217		229.54400		875.00000 
 43692.65567		 305.27265			43387.38302		66.22000		324.00000 
 43692.65567		 896.72350			42795.93217		229.54400		875.00000 
 43692.65567		 305.27265			43387.38302		66.22000		324.00000 
 43692.65567		 896.72350			42795.93217		229.54400		875.00000 
 43692.65567		 305.27265			43387.38302		66.22000		324.00000 
 43692.65567		 896.72350			42795.93217		229.54400		875.00000 
 43692.65567		 305.27265			43387.38302		66.22000		324.00000 
 43692.65567		 896.72350			42795.93217		229.54400		875.00000 
 43692.65567		 305.27265			43387.38302		66.22000		324.00000 
 43692.65567		 896.72350			42795.93217		229.54400		875.00000 
 43692.65567		 305.27265			43387.38302		66.22000		324.00000 
 43692.65567		 896.72350			42795.93217		229.54400		875.00000 
 43692.65567		 305.27265			43387.38302		66.22000		324.00000 
 43692.65567		 896.72350			42795.93217		229.54400		875.00000 
 43692.65567		 305.27265			43387.38302		66.22000		324.00000 
 43692.65567		 896.72350			42795.93217		229.54400		875.00000 
 43692.65567		 305.27265			43387.38302		66.22000		324.00000 
 43692.65567		 896.72350			42795.93217		229.54400		875.00000 
 43692.65567		 305.27265			43387.38302		66.22000		324.00000 
 43692.65567		 896.72350			42795.93217		229.54400		875.00000 
 43692.65567		 305.27265			43387.38302		66.22000		324.00000 
 43692.65567		 896.72350			42795.93217		229.54400		875.00000 
 43692.65567		 305.27265			43387.38302		66.22000		324.00000 
 43692.65567		 896.72350			42795.93217		229.54400		875.00000 
 43692.65567		 305.27265			43387.38302		66.22000		324.00000 
 43692.65567		 896.72350			42795.93217		229.54400		875.00000 
 43692.65567		 305.27265			43387.38302		66.22000		324.00000 
 43692.65567		 896.72350			42795.93217		229.54400		875.00000 
 43692.65567		 305.27265			43387.38302		66.22000		324.00000 
 43692.65567		 896.72350			42795.93217		229.54400		875.00000 
 43692.65567		 305.27265			43387.38302		66.22000		324.00000 
 43692.65567		 896.72350			42795.93217		229.54400		875.00000 
 43692.65567		 305.27265			43387.38302		66.22000		324.00000 
 43692.65567		 896.72350			42795.93217		229.54400		875.00000 
 43692.65567		 305.27265			43387.38302		66.22000		324.00000 
 43692.65567		 896.72350			42795.93217		229.54400		875.00000 
 43692.65567		 305.27265			43387.38302		66.22000		324.00000 
 43692.65567		 896.72350			42795.93217		229.54400		875.00000 
 43692.65567		 305.27265			43387.38302		66.22000		324.00000 
 43692.65567		 896.72350			42795.93217		229.54400		875.00000 
 43692.65567		 305.27265			43387.38302		66.22000		324.00000 
 43692.65567		 896.72350			42795.93217		229.54400		875.00000 
 43692.65567		 305.27265			43387.38302		66.22000		324.00000 
 43692.65567		 896.72350			42795.93217		229.54400		875.00000 
 43692.65567		 305.27265			43387.38302		66.22000		324.00000 
 43692.65567		 896.72350			42795.93217		229.54400		875.00000 
 43692.65567		 305.27265			43387.38302		66.22000		324.00000 
 43692.65567		 896.72350			42795.93217		229.54400		875.00000 
 43692.65567		 305.27265			43387.38302		66.22000		324.00000 
 43692.65567		 896.72350			42795.93217		229.54400		875.00000 
 43692.65567		 305.27265			43387.38302		66.22000		324.00000 
 43692.65567		 896.72350			42795.93217		229.54400		875.00000 
 43692.65567		 305.27265			43387.38302		66.22000		324.00000 
 43692.65567		 896.72350			42795.93217		229.54400		875.00000 
 43692.65567		 305.27265			43387.38302		66.22000		324.00000 
 43692.65567		 896.72350			42795.93217		229.54400		875.00000 
 43692.65567		 305.27265			43387.38302		66.22000		324.00000 
 43692.65567		 896.72350			42795.93217		229.54400		875.00000 
 43692.65567		 305.27265			43387.38302		66.22000		324.00000 
 43692.65567		 896.72350			42795.93217		229.54400		875.00000 
 43692.65567		 305.27265			43387.38302		66.22000		324.00000 
 43692.65567		 896.72350			42795.93217		229.54400		875.00000 
 43692.65567		 305.27265			43387.38302		66.22000		324.00000 
 43692.65567		 896.72350			42795.93217		229.54400		875.00000 
 43692.65567		 305.27265			43387.38302		66.22000		324.00000 
 43692.65567		 896.72350			42795.93217		229.54400		875.00000 
 43692.65567		 305.27265			43387.38302		66.22000		324.00000 
 43692.65567		 896.72350			42795.93217		229.54400		875.00000 
 43692.65567		 305.27265			43387.38302		66.22000		324.00000 
 43692.65567		 896.72350			42795.93217		229.54400		875.00000 
 43692.65567		 305.27265			43387.38302		66.22000		324.00000 
 43692.65567		 896.72350			42795.93217		229.54400		875.00000 
 43692.65567		 305.27265			43387.38302		66.22000		324.00000 
 43692.65567		 896.72350			42795.93217		229.54400		875.00000 
 43692.65567		 305.27265			43387.38302		66.22000		324.00000 
 43692.65567		 896.72350			42795.93217		229.54400		875.00000 
 43692.65567		 305.27265			43387.38302		66.22000		324.00000 
 43692.65567		 896.72350			42795.93217		229.54400		875.00000 
 43692.65567		 305.27265			43387.38302		66.22000		324.00000 
 43692.65567		 896.72350			42795.93217		229.54400		875.00000 
 43692.65567		 305.27265			43387.38302		66.22000		324.00000 
 43692.65567		 896.72350			42795.93217		229.54400		875.00000 
 43692.65567		 305.27265			43387.38302		66.22000		324.00000 
 43692.65567		 896.72350			42795.93217		229.54400		875.00000 
 43692.65567		 305.27265			43387.38302		66.22000		324.00000 
 43692.65567		 896.72350			42795.93217		229.54400		875.00000 
 43692.65567		 305.27265			43387.38302		66.22000		324.00000 
 43692.65567		 896.72350			42795.93217		229.54400		875.00000 
 43692.65567		 305.27265			43387.38302		66.22000		324.00000 
 43692.65567		 896.72350			42795.93217		229.54400		875.00000 
 43692.65567		 305.27265			43387.38302		66.22000		324.00000 
 43692.65567		 896.72350			42795.93217		229.54400		875.00000 
 43692.65567		 305.27265			43387.38302		66.22000		324.00000 
 43692.65567		 896.72350			42795.93217		229.54400		875.00000 
 43692.65567		 305.27265			43387.38302		66.22000		324.00000 
 43692.65567		 896.72350			42795.93217		229.54400		875.00000 
 43692.65567		 305.27265			43387.38302		66.22000		324.00000 
 43692.65567		 896.72350			42795.93217		229.54400		875.00000 
 43692.65567		 305.27265			43387.38302		66.22000		324.00000 
 43692.65567		 896.72350			42795.93217		229.54400		875.00000 
 43692.65567		 305.27265			43387.38302		66.22000		324.00000 
 43692.65567		 896.72350			42795.93217		229.54400		875.00000 
 43692.65567		 305.27265			43387.38302		66.22000		324.00000 
 43692.65567		 896.72350			42795.93217		229.54400		875.00000 
 43692.65567		 305.27265			43387.38302		66.22000		324.00000 
 43692.65567		 896.72350			42795.93217		229.54400		875.00000 
 43692.65567		 305.27265			43387.38302		66.22000		324.00000 
 43692.65567		 896.72350			42795.93217		229.54400		875.00000 
 43692.65567		 305.27265			43387.38302		66.22000		324.00000 
 43692.65567		 896.72350			42795.93217		229.54400		875.00000 
 43692.65567		 305.27265			43387.38302		66.22000		324.00000 
 43692.65567		 896.72350			42795.93217		229.54400		875.00000 
 43692.65567		 305.27265			43387.38302		66.22000		324.00000 
 43692.65567		 896.72350			42795.93217		229.54400		875.00000 
 43692.65567		 305.27265			43387.38302		66.22000		324.00000 
 43692.65567		 896.72350			42795.93217		229.54400		875.00000 
 43692.65567		 305.27265			43387.38302		66.22000		324.00000 
 43692.65567		 896.72350			42795.93217		229.54400		875.00000 
 43692.65567		 305.27265			43387.38302		66.22000		324.00000 
 43692.65567		 896.72350			42795.93217		229.54400		875.00000 
 43692.65567		 305.27265			43387.38302		66.22000		324.00000 
 43692.65567		 896.72350			42795.93217		229.54400		875.00000 
 43692.65567		 305.27265			43387.38302		66.22000		324.00000 
 43692.65567		 896.72350			42795.93217		229.54400		875.00000 
 43692.65567		 305.27265			43387.38302		66.22000		324.00000 
 43692.65567		 896.72350			42795.93217		229.54400		875.00000 
 43692.65567		 305.27265			43387.38302		66.22000		324.00000 
 43692.65567		 896.72350			42795.93217		229.54400		875.00000 
 43692.65567		 305.27265			43387.38302		66.22000		324.00000 
 43692.65567		 896.72350			42795.93217		229.54400		875.00000 
 43692.65567		 305.27265			43387.38302		66.22000		324.00000 
 43692.65567		 896.72350			42795.93217		229.54400		875.00000 
 43692.65567		 305.27265			43387.38302		66.22000		324.00000 
 43692.65567		 896.72350			42795.93217		229.54400		875.00000 
 43692.65567		 305.27265			43387.38302		66.22000		324.00000 
 43692.65567		 896.72350			42795.93217		229.54400		875.00000 
 43692.65567		 305.27265			43387.38302		66.22000		324.00000 
 43692.65567		 896.72350			42795.93217		229.54400		875.00000 
 43692.65567		 305.27265			43387.38302		66.22000		324.00000 
 43692.65567		 896.72350			42795.93217		229.54400		875.00000 
 43692.65567		 305.27265			43387.38302		66.22000		324.00000 
 43692.65567		 896.72350			42795.93217		229.54400		875.00000 
 43692.65567		 305.27265			43387.38302		66.22000		324.00000 
 43692.65567		 896.72350			42795.93217		229.54400		875.00000 
 43692.65567		 305.27265			43387.38302		66.22000		324.00000 
 43692.65567		 896.72350			42795.93217		229.54400		875.00000 
 43692.65567		 305.27265			43387.38302		66.22000		324.00000 
 43692.65567		 896.72350			42795.93217		229.54400		875.00000 
 43692.65567		 305.27265			43387.38302		66.22000		324.00000 
 43692.65567		 896.72350			42795.93217		229.54400		875.00000 
 43692.65567		 305.27265			43387.38302		66.22000		324.00000 
 43692.65567		 896.72350			42795.93217		229.54400		875.00000 
 43692.65567		 305.27265			43387.38302		66.22000		324.00000 
 43692.65567		 896.72350			42795.93217		229.54400		875.00000 
 43692.65567		 305.27265			43387.38302		66.22000		324.00000 
 43692.65567		 896.72350			42795.93217		229.54400		875.00000 
 43692.65567		 305.27265			43387.38302		66.22000		324.00000 
 43692.65567		 896.72350			42795.93217		229.54400		875.00000 
 43692.65567		 305.27265			43387.38302		66.22000		324.00000 
 43692.65567		 896.72350			42795.93217		229.54400		875.00000 
 43692.65567		 305.27265			43387.38302		66.22000		324.00000 
 43692.65567		 896.72350			42795.93217		229.54400		875.00000 
 43692.65567		 305.27265			43387.38302		66.22000		324.00000 
 43692.65567		 896.72350			42795.93217		229.54400		875.00000 
 43692.65567		 305.27265			43387.38302		66.22000		324.00000 
 43692.65567		 896.72350			42795.93217		229.54400		875.00000 
 43692.65567		 305.27265			43387.38302		66.22000		324.00000 
 43692.65567		 896.72350			42795.93217		229.54400		875.00000 
 43692.65567		 305.27265			43387.38302		66.22000		324.00000 
 43692.65567		 896.72350			42795.93217		229.54400		875.00000 
 43692.65567		 305.27265			43387.38302		66.22000		324.00000 
 43692.65567		 896.72350			42795.93217		229.54400		875.00000 
 43692.65567		 305.27265			43387.38302		66.22000		324.00000 
 43692.65567		 896.72350			42795.93217		229.54400		875.00000 
 43692.65567		 305.27265			43387.38302		66.22000		324.00000 
 43692.65567		 896.72350			42795.93217		229.54400		875.00000 
 43692.65567		 305.27265			43387.38302		66.22000		324.00000 
 43692.65567		 896.72350			42795.93217		229.54400		875.00000 
 43692.65567		 305.27265			43387.38302		66.22000		324.00000 
 43692.65567		 896.72350			42795.93217		229.54400		875.00000 
 43692.65567		 305.27265			43387.38302		66.22000		324.00000 
 43692.65567		 896.72350			42795.93217		229.54400		875.00000 
 43692.65567		 305.27265			43387.38302		66.22000		324.00000 
 43692.65567		 896.72350			42795.93217		229.54400		875.00000 
 43692.65567		 305.27265			43387.38302		66.22000		324.00000 
 43692.65567		 896.72350			42795.93217		229.54400		875.00000 
 43692.65567		 305.27265			43387.38302		66.22000		324.00000 
 43692.65567		 896.72350			42795.93217		229.54400		875.00000 
 43692.65567		 305.27265			43387.38302		66.22000		324.00000 
 43692.65567		 896.72350			42795.93217		229.54400		875.00000 
 43692.65567		 305.27265			43387.38302		66.22000		324.00000 
 43692.65567		 896.72350			42795.93217		229.54400		875.00000 
 43692.65567		 305.27265			43387.38302		66.22000		324.00000 
 43692.65567		 896.72350			42795.93217		229.54400		875.00000 
 43692.65567		 305.27265			43387.38302		66.22000		324.00000 
 43692.65567		 896.72350			42795.93217		229.54400		875.00000 
 43692.65567		 305.27265			43387.38302		66.22000		324.00000 
 43692.65567		 896.72350			42795.93217		229.54400		875.00000 
 43692.65567		 305.27265			43387.38302		66.22000		324.00000 
 43692.65567		 896.72350			42795.93217		229.54400		875.00000 
 43692.65567		 305.27265			43387.38302		66.22000		324.00000 
 43692.65567		 896.72350			42795.93217		229.54400		875.00000 
 43692.65567		 305.27265			43387.38302		66.22000		324.00000 
 43692.65567		 896.72350			42795.93217		229.54400		875.00000 
 43692.65567		 305.27265			43387.38302		66.22000		324.00000 
 43692.65567		 896.72350			42795.93217		229.54400		875.00000 
 43692.65567		 305.27265			43387.38302		66.22000		324.00000 
 43692.65567		 896.72350			42795.93217		229.54400		875.00000 
 43692.65567		 305.27265			43387.38302		66.22000		324.00000 
 43692.65567		 896.72350			42795.93217		229.54400		875.00000 
 43692.65567		 305.27265			43387.38302		66.22000		324.00000 
 43692.65567		 896.72350			42795.93217		229.54400		875.00000 
 43692.65567		 305.27265			43387.38302		66.22000		324.00000 
 43692.65567		 896.72350			42795.93217		229.54400		875.00000 
 43692.65567		 305.27265			43387.38302		66.22000		324.00000 
 43692.65567		 896.72350			42795.93217		229.54400		875.00000 
 43692.65567		 305.27265			43387.38302		66.22000		324.00000 
 43692.65567		 896.72350			42795.93217		229.54400		875.00000 
 43692.65567		 305.27265			43387.38302		66.22000		324.00000 
 43692.65567		 896.72350			42795.93217		229.54400		875.00000 
 43692.65567		 305.27265			43387.38302		66.22000		324.00000 
 43692.65567		 896.72350			42795.93217		229.54400		875.00000 
 43692.65567		 305.27265			43387.38302		66.22000		324.00000 
 43692.65567		 896.72350			42795.93217		229.54400		875.00000 
 43692.65567		 305.27265			43387.38302		66.22000		324.00000 
 43692.65567		 896.72350			42795.93217		229.54400		875.00000 
 43692.65567		 305.27265			43387.38302		66.22000		324.00000 
 43692.65567		 896.72350			42795.93217		229.54400		875.00000 
 43692.65567		 305.27265			43387.38302		66.22000		324.00000 
 43692.65567		 896.72350			42795.93217		229.54400		875.00000 
 43692.65567		 305.27265			43387.38302		66.22000		324.00000 
 43692.65567		 896.72350			42795.93217		228.94600		875.00000 
 43692.65567		 305.27265			43387.38302		66.22000		324.00000 
 43692.65567		 896.72350			42795.93217		228.94600		875.00000 
 43692.65567		 305.27265			43387.38302		66.22000		324.00000 
 43692.65567		 896.72350			42795.93217		228.94600		875.00000 
 43692.65567		 305.27265			43387.38302		66.22000		324.00000 
 43692.65567		 896.72350			42795.93217		228.94600		875.00000 
 43692.65567		 305.27265			43387.38302		66.22000		324.00000 
 43692.65567		 896.72350			42795.93217		228.94600		875.00000 
 43692.65567		 305.27265			43387.38302		66.22000		324.00000 
 43692.65567		 896.72350			42795.93217		228.94600		875.00000 
 43692.65567		 305.27265			43387.38302		66.22000		324.00000 
 43692.65567		 896.72350			42795.93217		228.94600		875.00000 
 43692.65567		 305.27265			43387.38302		66.22000		324.00000 
 43692.65567		 896.72350			42795.93217		228.94600		875.00000 
 43692.65567		 305.27265			43387.38302		66.22000		324.00000 
 43692.65567		 896.72350			42795.93217		228.94600		875.00000 
 43692.65567		 305.27265			43387.38302		66.22000		324.00000 
 43692.65567		 896.72350			42795.93217		228.94600		875.00000 
 43692.65567		 305.27265			43387.38302		66.22000		324.00000 
 43692.65567		 896.72350			42795.93217		228.94600		875.00000 
 43692.65567		 305.27265			43387.38302		66.22000		324.00000 
 43692.65567		 896.72350			42795.93217		228.94600		875.00000 
 43692.65567		 305.27265			43387.38302		66.22000		324.00000 
 43692.65567		 896.72350			42795.93217		228.94600		875.00000 
 43692.65567		 305.27265			43387.38302		66.22000		324.00000 
 43692.65567		 896.72350			42795.93217		228.94600		875.00000 
 43692.65567		 305.27265			43387.38302		66.22000		324.00000 
 43692.65567		 896.72350			42795.93217		228.94600		875.00000 
 43692.65567		 305.27265			43387.38302		66.22000		324.00000 
 43692.65567		 896.72350			42795.93217		228.94600		875.00000 
 43692.65567		 305.27265			43387.38302		66.22000		324.00000 
 43692.65567		 896.72350			42795.93217		228.94600		875.00000 
 43692.65567		 305.27265			43387.38302		66.22000		324.00000 
 43692.65567		 896.72350			42795.93217		228.94600		875.00000 
 43692.65567		 305.27265			43387.38302		66.22000		324.00000 
 43692.65567		 896.72350			42795.93217		228.94600		875.00000 
 43692.65567		 305.27265			43387.38302		66.22000		324.00000 
 43692.65567		 896.72350			42795.93217		228.94600		875.00000 
 43692.65567		 305.27265			43387.38302		66.22000		324.00000 
 43692.65567		 896.72350			42795.93217		228.94600		875.00000 
 43692.65567		 305.27265			43387.38302		66.22000		324.00000 
 43692.65567		 896.72350			42795.93217		228.94600		875.00000 
 43692.65567		 305.27265			43387.38302		66.22000		324.00000 
 43692.65567		 896.72350			42795.93217		228.94600		875.00000 
 43692.65567		 305.27265			43387.38302		66.22000		324.00000 
 43692.65567		 896.72350			42795.93217		228.94600		875.00000 
 43692.65567		 305.27265			43387.38302		69.64400		324.00000 
 43692.65567		 896.72350			42795.93217		228.94600		875.00000 
 43692.65567		 305.27265			43387.38302		69.64400		324.00000 
 43692.65567		 896.72350			42795.93217		228.94600		875.00000 
 43692.65567		 305.27265			43387.38302		69.64400		324.00000 
 43692.65567		 896.72350			42795.93217		228.94600		875.00000 
 43692.65567		 305.27265			43387.38302		69.64400		324.00000 
 43692.65567		 896.72350			42795.93217		228.94600		875.00000 
 43692.65567		 305.27265			43387.38302		69.64400		324.00000 
 43692.65567		 896.72350			42795.93217		228.94600		875.00000 
 43692.65567		 305.27265			43387.38302		69.64400		324.00000 
 43692.65567		 896.72350			42795.93217		228.94600		875.00000 
 43692.65567		 305.27265			43387.38302		69.64400		324.00000 
 43692.65567		 896.72350			42795.93217		228.94600		875.00000 
 43692.65567		 305.27265			43387.38302		69.64400		324.00000 
 43692.65567		 896.72350			42795.93217		228.94600		875.00000 
 43692.65567		 305.27265			43387.38302		69.64400		324.00000 
 43692.65567		 896.72350			42795.93217		228.94600		875.00000 
 43692.65567		 305.27265			43387.38302		69.64400		324.00000 
 43692.65567		 896.72350			42795.93217		228.94600		875.00000 
 43692.65567		 305.27265			43387.38302		69.64400		324.00000 
 43692.65567		 896.72350			42795.93217		228.94600		875.00000 
 43692.65567		 305.27265			43387.38302		69.64400		324.00000 
 43692.65567		 896.72350			42795.93217		228.94600		875.00000 
 43692.65567		 305.27265			43387.38302		69.64400		324.00000 
 43692.65567		 896.72350			42795.93217		228.94600		875.00000 
 43692.65567		 305.27265			43387.38302		69.64400		324.00000 
 43692.65567		 896.72350			42795.93217		228.94600		875.00000 
 43692.65567		 305.27265			43387.38302		69.64400		324.00000 
 43692.65567		 896.72350			42795.93217		228.94600		875.00000 
 43692.65567		 305.27265			43387.38302		69.64400		324.00000 
 43692.65567		 896.72350			42795.93217		228.94600		875.00000 
 43692.65567		 305.27265			43387.38302		69.64400		324.00000 
 43692.65567		 896.72350			42795.93217		228.94600		875.00000 
 43692.65567		 305.27265			43387.38302		69.64400		324.00000 
 43692.65567		 896.72350			42795.93217		228.94600		875.00000 
 43692.65567		 305.27265			43387.38302		69.64400		324.00000 
 43692.65567		 896.72350			42795.93217		228.94600		875.00000 
 43692.65567		 305.27265			43387.38302		69.64400		324.00000 
 43692.65567		 896.72350			42795.93217		228.94600		875.00000 
 43692.65567		 305.27265			43387.38302		69.64400		324.00000 
 43692.65567		 896.72350			42795.93217		228.94600		875.00000 
 43692.65567		 305.27265			43387.38302		69.64400		324.00000 
 43692.65567		 896.72350			42795.93217		228.94600		875.00000 
 43692.65567		 305.27265			43387.38302		69.64400		324.00000 
 43692.65567		 896.72350			42795.93217		228.94600		875.00000 
 43692.65567		 305.27265			43387.38302		69.64400		324.00000 
 43692.65567		 896.72350			42795.93217		228.94600		875.00000 
 43692.65567		 305.27265			43387.38302		69.64400		324.00000 
 43692.65567		 896.72350			42795.93217		228.94600		875.00000 
 43692.65567		 305.27265			43387.38302		69.64400		324.00000 
 43692.65567		 896.72350			42795.93217		228.94600		875.00000 
 43692.65567		 305.27265			43387.38302		69.64400		324.00000 
 43692.65567		 896.72350			42795.93217		228.94600		875.00000 
 43692.65567		 305.27265			43387.38302		69.64400		324.00000 
 43692.65567		 896.72350			42795.93217		228.94600		875.00000 
 43692.65567		 305.27265			43387.38302		69.64400		324.00000 
 43692.65567		 896.72350			42795.93217		228.94600		875.00000 
 43692.65567		 305.27265			43387.38302		69.64400		324.00000 
 43692.65567		 896.72350			42795.93217		228.94600		875.00000 
 43692.65567		 305.27265			43387.38302		69.64400		324.00000 
 43692.65567		 896.72350			42795.93217		228.94600		875.00000 
 43692.65567		 305.27265			43387.38302		69.64400		324.00000 
 43692.65567		 896.72350			42795.93217		228.94600		875.00000 
 43692.65567		 305.27265			43387.38302		69.64400		324.00000 
 43692.65567		 896.72350			42795.93217		228.94600		875.00000 
 43692.65567		 305.27265			43387.38302		69.64400		324.00000 
 43692.65567		 896.72350			42795.93217		228.94600		875.00000 
 43692.65567		 305.27265			43387.38302		69.64400		324.00000 
 43692.65567		 896.72350			42795.93217		228.94600		875.00000 
 43692.65567		 305.27265			43387.38302		69.64400		324.00000 
 43692.65567		 896.72350			42795.93217		228.94600		875.00000 
 43692.65567		 305.27265			43387.38302		69.64400		324.00000 
 43692.65567		 896.72350			42795.93217		228.94600		875.00000 
 43692.65567		 305.27265			43387.38302		69.64400		324.00000 
 43692.65567		 896.72350			42795.93217		228.94600		875.00000 
 43692.65567		 305.27265			43387.38302		69.64400		324.00000 
 43692.65567		 896.72350			42795.93217		228.94600		875.00000 
 43692.65567		 305.27265			43387.38302		69.64400		324.00000 
 43692.65567		 896.72350			42795.93217		228.94600		875.00000 
 43692.65567		 305.27265			43387.38302		69.64400		324.00000 
 43692.65567		 896.72350			42795.93217		228.94600		875.00000 
 43692.65567		 305.27265			43387.38302		69.64400		324.00000 
 43692.65567		 896.72350			42795.93217		228.94600		875.00000 
 43692.65567		 305.27265			43387.38302		69.64400		324.00000 
 43692.65567		 896.72350			42795.93217		228.94600		875.00000 
 43692.65567		 305.27265			43387.38302		69.64400		324.00000 
 43692.65567		 896.72350			42795.93217		228.94600		875.00000 
 43692.65567		 305.27265			43387.38302		69.64400		324.00000 
 43692.65567		 896.72350			42795.93217		228.94600		875.00000 
 43692.65567		 305.27265			43387.38302		69.64400		324.00000 
 43692.65567		 896.72350			42795.93217		228.94600		875.00000 
 43692.65567		 305.27265			43387.38302		69.64400		324.00000 
 43692.65567		 896.72350			42795.93217		228.94600		875.00000 
 43692.65567		 305.27265			43387.38302		69.64400		324.00000 
 43692.65567		 896.72350			42795.93217		228.94600		875.00000 
 43692.65567		 305.27265			43387.38302		69.64400		324.00000 
 43692.65567		 896.72350			42795.93217		228.94600		875.00000 
 43692.65567		 305.27265			43387.38302		69.64400		324.00000 
 43692.65567		 896.72350			42795.93217		228.94600		875.00000 
 43692.65567		 305.27265			43387.38302		69.64400		324.00000 
 43692.65567		 896.72350			42795.93217		228.94600		875.00000 
 43692.65567		 305.27265			43387.38302		69.64400		324.00000 
 43692.65567		 896.72350			42795.93217		228.94600		875.00000 
 43692.65567		 305.27265			43387.38302		69.64400		324.00000 
 43692.65567		 896.72350			42795.93217		228.94600		875.00000 
 43692.65567		 305.27265			43387.38302		69.64400		324.00000 
 43692.65567		 896.72350			42795.93217		228.94600		875.00000 
 43692.65567		 305.27265			43387.38302		69.64400		324.00000 
 43692.65567		 896.72350			42795.93217		228.94600		875.00000 
 43692.65567		 305.27265			43387.38302		69.64400		324.00000 
 43692.65567		 896.72350			42795.93217		228.94600		875.00000 
 43692.65567		 305.27265			43387.38302		69.64400		324.00000 
 43692.65567		 896.72350			42795.93217		228.94600		875.00000 
 43692.65567		 305.27265			43387.38302		69.64400		324.00000 
 43692.65567		 896.72350			42795.93217		228.94600		875.00000 
 43692.65567		 305.27265			43387.38302		69.64400		324.00000 
 43692.65567		 896.72350			42795.93217		228.94600		875.00000 
 43692.65567		 305.27265			43387.38302		69.64400		324.00000 
 43692.65567		 896.72350			42795.93217		228.94600		875.00000 
 43692.65567		 305.27265			43387.38302		69.64400		324.00000 
 43692.65567		 896.72350			42795.93217		228.94600		875.00000 
 43692.65567		 305.27265			43387.38302		69.64400		324.00000 
 43692.65567		 896.72350			42795.93217		228.94600		875.00000 
 43692.65567		 305.27265			43387.38302		69.64400		324.00000 
 43692.65567		 896.72350			42795.93217		228.94600		875.00000 
 43692.65567		 305.27265			43387.38302		69.64400		324.00000 
 43692.65567		 896.72350			42795.93217		228.94600		875.00000 
 43692.65567		 305.27265			43387.38302		69.64400		324.00000 
 43692.65567		 896.72350			42795.93217		228.94600		875.00000 
 43692.65567		 305.27265			43387.38302		69.64400		324.00000 
 43692.65567		 896.72350			42795.93217		228.94600		875.00000 
 43692.65567		 305.27265			43387.38302		69.64400		324.00000 
 43692.65567		 896.72350			42795.93217		228.94600		875.00000 
 43692.65567		 305.27265			43387.38302		69.64400		324.00000 
 43692.65567		 896.72350			42795.93217		228.94600		875.00000 
 43692.65567		 305.27265			43387.38302		69.64400		324.00000 
 43692.65567		 896.72350			42795.93217		228.94600		875.00000 
 43692.65567		 305.27265			43387.38302		69.64400		324.00000 
 43692.65567		 896.72350			42795.93217		228.94600		875.00000 
 43692.65567		 305.27265			43387.38302		69.64400		324.00000 
 43692.65567		 896.72350			42795.93217		228.94600		875.00000 
 43692.65567		 305.27265			43387.38302		69.64400		324.00000 
 43692.65567		 896.72350			42795.93217		228.94600		875.00000 
 43692.65567		 305.27265			43387.38302		69.64400		324.00000 
 43692.65567		 896.72350			42795.93217		228.94600		875.00000 
 43692.65567		 305.27265			43387.38302		69.64400		324.00000 
 43692.65567		 896.72350			42795.93217		228.94600		875.00000 
 43692.65567		 305.27265			43387.38302		69.64400		324.00000 
 43692.65567		 896.72350			42795.93217		228.94600		875.00000 
 43692.65567		 305.27265			43387.38302		69.64400		324.00000 
 43692.65567		 896.72350			42795.93217		228.94600		875.00000 
 43692.65567		 305.27265			43387.38302		69.64400		324.00000 
 43692.65567		 896.72350			42795.93217		228.94600		875.00000 
 43692.65567		 305.27265			43387.38302		69.64400		324.00000 
 43692.65567		 896.72350			42795.93217		228.94600		875.00000 
 43692.65567		 305.27265			43387.38302		69.64400		324.00000 
 43692.65567		 896.72350			42795.93217		228.94600		875.00000 
 43692.65567		 305.27265			43387.38302		69.64400		324.00000 
 43692.65567		 896.72350			42795.93217		228.94600		875.00000 
 43692.65567		 305.27265			43387.38302		69.64400		324.00000 
 43692.65567		 896.72350			42795.93217		228.94600		875.00000 
 43692.65567		 305.27265			43387.38302		69.64400		324.00000 
 43692.65567		 896.72350			42795.93217		228.94600		875.00000 
 43692.65567		 305.27265			43387.38302		69.64400		324.00000 
 43692.65567		 896.72350			42795.93217		228.94600		875.00000 
 43692.65567		 305.27265			43387.38302		69.64400		324.00000 
 43692.65567		 896.72350			42795.93217		228.94600		875.00000 
 43692.65567		 305.27265			43387.38302		69.64400		324.00000 
 43692.65567		 896.72350			42795.93217		228.94600		875.00000 
 43692.65567		 305.27265			43387.38302		69.64400		324.00000 
 43692.65567		 896.72350			42795.93217		228.94600		875.00000 
 43692.65567		 305.27265			43387.38302		69.64400		324.00000 
 43692.65567		 896.72350			42795.93217		228.94600		875.00000 
 43692.65567		 305.27265			43387.38302		69.64400		324.00000 
 43692.65567		 896.72350			42795.93217		228.94600		875.00000 
 43692.65567		 305.27265			43387.38302		69.64400		324.00000 
 43692.65567		 896.72350			42795.93217		228.94600		875.00000 
 43692.65567		 305.27265			43387.38302		69.64400		324.00000 
 43692.65567		 896.72350			42795.93217		228.94600		875.00000 
 43692.65567		 305.27265			43387.38302		69.64400		324.00000 
 43692.65567		 896.72350			42795.93217		228.94600		875.00000 
 43692.65567		 305.27265			43387.38302		69.64400		324.00000 
 43692.65567		 896.72350			42795.93217		228.94600		875.00000 
 43692.65567		 305.27265			43387.38302		69.64400		324.00000 
 43692.65567		 896.72350			42795.93217		228.94600		875.00000 
 43692.65567		 305.27265			43387.38302		69.64400		324.00000 
 43692.65567		 896.72350			42795.93217		228.94600		875.00000 
 43692.65567		 305.27265			43387.38302		69.64400		324.00000 
 43692.65567		 896.72350			42795.93217		228.94600		875.00000 
 43692.65567		 305.27265			43387.38302		69.64400		324.00000 
 43692.65567		 896.72350			42795.93217		228.94600		875.00000 
 43692.65567		 305.27265			43387.38302		69.64400		324.00000 
 43692.65567		 896.72350			42795.93217		228.94600		875.00000 
 43692.65567		 305.27265			43387.38302		69.64400		324.00000 
 43692.65567		 896.72350			42795.93217		228.94600		875.00000 
 43692.65567		 305.27265			43387.38302		69.64400		324.00000 
 43692.65567		 896.72350			42795.93217		228.94600		875.00000 
 43692.65567		 305.27265			43387.38302		69.64400		324.00000 
 43692.65567		 896.72350			42795.93217		228.94600		875.00000 
 43692.65567		 305.27265			43387.38302		69.64400		324.00000 
 43692.65567		 896.72350			42795.93217		228.94600		875.00000 
 43692.65567		 305.27265			43387.38302		69.64400		324.00000 
 43692.65567		 896.72350			42795.93217		228.94600		875.00000 
 43692.65567		 305.27265			43387.38302		69.64400		324.00000 
 43692.65567		 896.72350			42795.93217		228.94600		875.00000 
 43692.65567		 305.27265			43387.38302		69.64400		324.00000 
 43692.65567		 896.72350			42795.93217		228.94600		875.00000 
 43692.65567		 305.27265			43387.38302		69.64400		324.00000 
 43692.65567		 896.72350			42795.93217		228.94600		875.00000 
 43692.65567		 305.27265			43387.38302		69.64400		324.00000 
 43692.65567		 896.72350			42795.93217		228.94600		875.00000 
 43692.65567		 305.27265			43387.38302		69.64400		324.00000 
 43692.65567		 896.72350			42795.93217		228.94600		875.00000 
 43692.65567		 305.27265			43387.38302		69.64400		324.00000 
 43692.65567		 896.72350			42795.93217		228.94600		875.00000 
 43692.65567		 305.27265			43387.38302		69.64400		324.00000 
 43692.65567		 896.72350			42795.93217		228.94600		875.00000 
 43692.65567		 305.27265			43387.38302		69.64400		324.00000 
 43692.65567		 896.72350			42795.93217		228.94600		875.00000 
 43692.65567		 305.27265			43387.38302		69.64400		324.00000 
 43692.65567		 896.72350			42795.93217		228.94600		875.00000 
 43692.65567		 305.27265			43387.38302		69.64400		324.00000 
 43692.65567		 896.72350			42795.93217		228.94600		875.00000 
 43692.65567		 305.27265			43387.38302		69.64400		324.00000 
 43692.65567		 896.72350			42795.93217		228.94600		875.00000 
 43692.65567		 305.27265			43387.38302		69.64400		324.00000 
 43692.65567		 896.72350			42795.93217		228.94600		875.00000 
 43692.65567		 305.27265			43387.38302		69.64400		324.00000 
 43692.65567		 896.72350			42795.93217		228.94600		875.00000 
 43692.65567		 305.27265			43387.38302		69.64400		324.00000 
 43692.65567		 896.72350			42795.93217		228.94600		875.00000 
 43692.65567		 305.27265			43387.38302		69.64400		324.00000 
 43692.65567		 896.72350			42795.93217		228.94600		875.00000 
 43692.65567		 305.27265			43387.38302		69.64400		324.00000 
 43692.65567		 896.72350			42795.93217		228.94600		875.00000 
 43692.65567		 305.27265			43387.38302		69.64400		324.00000 
 43692.65567		 896.72350			42795.93217		228.94600		875.00000 
 43692.65567		 305.27265			43387.38302		69.64400		324.00000 
 43692.65567		 896.72350			42795.93217		228.94600		875.00000 
 43692.65567		 305.27265			43387.38302		69.64400		324.00000 
 43692.65567		 896.72350			42795.93217		228.94600		875.00000 
 43692.65567		 305.27265			43387.38302		69.64400		324.00000 
 43692.65567		 896.72350			42795.93217		228.94600		875.00000 
 43692.65567		 305.27265			43387.38302		69.64400		324.00000 
 43692.65567		 896.72350			42795.93217		228.94600		875.00000 
 43692.65567		 305.27265			43387.38302		69.64400		324.00000 
 43692.65567		 896.72350			42795.93217		228.94600		875.00000 
 43692.65567		 305.27265			43387.38302		69.64400		324.00000 
 43692.65567		 896.72350			42795.93217		228.94600		875.00000 
 43692.65567		 305.27265			43387.38302		69.64400		324.00000 
 43692.65567		 896.72350			42795.93217		228.94600		875.00000 
 43692.65567		 305.27265			43387.38302		69.64400		324.00000 
 43692.65567		 896.72350			42795.93217		228.94600		875.00000 
 43692.65567		 305.27265			43387.38302		69.64400		324.00000 
 43692.65567		 896.72350			42795.93217		228.94600		875.00000 
 43692.65567		 305.27265			43387.38302		69.64400		324.00000 
 43692.65567		 896.72350			42795.93217		228.94600		875.00000 
 43692.65567		 305.27265			43387.38302		69.64400		324.00000 
 43692.65567		 896.72350			42795.93217		228.94600		875.00000 
 43692.65567		 305.27265			43387.38302		69.64400		324.00000 
 43692.65567		 896.72350			42795.93217		228.94600		875.00000 
 43692.65567		 305.27265			43387.38302		69.64400		324.00000 
 43692.65567		 896.72350			42795.93217		228.94600		875.00000 
 43692.65567		 305.27265			43387.38302		69.64400		324.00000 
 43692.65567		 896.72350			42795.93217		228.94600		875.00000 
 43692.65567		 305.27265			43387.38302		69.64400		324.00000 
 43692.65567		 896.72350			42795.93217		228.94600		875.00000 
 43692.65567		 305.27265			43387.38302		69.64400		324.00000 
 43692.65567		 896.72350			42795.93217		228.94600		875.00000 
 43692.65567		 305.27265			43387.38302		69.64400		324.00000 
 43692.65567		 896.72350			42795.93217		228.94600		875.00000 
 43692.65567		 305.27265			43387.38302		69.64400		324.00000 
 43692.65567		 896.72350			42795.93217		228.94600		875.00000 
 43692.65567		 305.27265			43387.38302		69.64400		324.00000 
 43692.65567		 896.72350			42795.93217		228.94600		875.00000 
 43692.65567		 305.27265			43387.38302		69.64400		324.00000 
 43692.65567		 896.72350			42795.93217		228.94600		875.00000 
 43692.65567		 305.27265			43387.38302		69.64400		324.00000 
 43692.65567		 896.72350			42795.93217		228.94600		875.00000 
 43692.65567		 305.27265			43387.38302		69.64400		324.00000 
 43692.65567		 896.72350			42795.93217		228.94600		875.00000 
 43692.65567		 305.27265			43387.38302		69.64400		324.00000 
 43692.65567		 896.72350			42795.93217		228.94600		875.00000 
 43692.65567		 305.27265			43387.38302		69.64400		324.00000 
 43692.65567		 896.72350			42795.93217		228.94600		875.00000 
 43692.65567		 305.27265			43387.38302		69.64400		324.00000 
 43692.65567		 896.72350			42795.93217		228.94600		875.00000 
 43692.65567		 305.27265			43387.38302		69.64400		324.00000 
 43692.65567		 896.72350			42795.93217		228.94600		875.00000 
 43692.65567		 305.27265			43387.38302		69.64400		324.00000 
 43692.65567		 896.72350			42795.93217		228.94600		875.00000 
 43692.65567		 305.27265			43387.38302		69.64400		324.00000 
 43692.65567		 896.72350			42795.93217		228.94600		875.00000 
 43692.65567		 305.27265			43387.38302		69.64400		324.00000 
 43692.65567		 896.72350			42795.93217		228.94600		875.00000 
 43692.65567		 305.27265			43387.38302		69.64400		324.00000 
 43692.65567		 896.72350			42795.93217		228.94600		875.00000 
 43692.65567		 305.27265			43387.38302		69.64400		324.00000 
 43692.65567		 896.72350			42795.93217		228.94600		875.00000 
 43692.65567		 305.27265			43387.38302		69.64400		324.00000 
 43692.65567		 896.72350			42795.93217		228.94600		875.00000 
 43692.65567		 305.27265			43387.38302		69.64400		324.00000 
 43692.65567		 896.72350			42795.93217		228.94600		875.00000 
 43692.65567		 305.27265			43387.38302		69.64400		324.00000 
 43692.65567		 896.72350			42795.93217		228.94600		875.00000 
 43692.65567		 305.27265			43387.38302		69.64400		324.00000 
 43692.65567		 896.72350			42795.93217		228.94600		875.00000 
 43692.65567		 305.27265			43387.38302		69.64400		324.00000 
 43692.65567		 896.72350			42795.93217		228.94600		875.00000 
 43692.65567		 305.27265			43387.38302		69.64400		324.00000 
 43692.65567		 896.72350			42795.93217		228.94600		875.00000 
 43692.65567		 305.27265			43387.38302		69.64400		324.00000 
 43692.65567		 896.72350			42795.93217		228.94600		875.00000 
 43692.65567		 305.27265			43387.38302		69.64400		324.00000 
 43692.65567		 896.72350			42795.93217		228.94600		875.00000 
 43692.65567		 305.27265			43387.38302		69.64400		324.00000 
 43692.65567		 896.72350			42795.93217		228.94600		875.00000 
 43692.65567		 305.27265			43387.38302		69.64400		324.00000 
 43692.65567		 896.72350			42795.93217		228.94600		875.00000 
 43692.65567		 305.27265			43387.38302		69.64400		324.00000 
 43692.65567		 896.72350			42795.93217		228.94600		875.00000 
 43692.65567		 305.27265			43387.38302		69.64400		324.00000 
 43692.65567		 896.72350			42795.93217		228.94600		875.00000 
 43692.65567		 305.27265			43387.38302		69.64400		324.00000 
 43692.65567		 896.72350			42795.93217		228.94600		875.00000 
 43692.65567		 305.27265			43387.38302		69.64400		324.00000 
 43692.65567		 896.72350			42795.93217		228.94600		875.00000 
 43692.65567		 305.27265			43387.38302		69.64400		324.00000 
 43692.65567		 896.72350			42795.93217		228.94600		875.00000 
 43692.65567		 305.27265			43387.38302		69.64400		324.00000 
 43692.65567		 896.72350			42795.93217		228.94600		875.00000 
 43692.65567		 305.27265			43387.38302		69.64400		324.00000 
 43692.65567		 896.72350			42795.93217		228.94600		875.00000 
 43692.65567		 305.27265			43387.38302		69.64400		324.00000 
 43692.65567		 896.72350			42795.93217		228.94600		875.00000 
 43692.65567		 305.27265			43387.38302		69.64400		324.00000 
 43692.65567		 896.72350			42795.93217		229.54400		875.00000 
 43692.65567		 305.27265			43387.38302		69.64400		324.00000 
 43692.65567		 896.72350			42795.93217		229.54400		875.00000 
 43692.65567		 305.27265			43387.38302		69.64400		324.00000 
 43692.65567		 896.72350			42795.93217		229.54400		875.00000 
 43692.65567		 305.27265			43387.38302		69.64400		324.00000 
 43692.65567		 896.72350			42795.93217		229.54400		875.00000 
 43692.65567		 305.27265			43387.38302		69.64400		324.00000 
 43692.65567		 896.72350			42795.93217		229.54400		875.00000 
 43692.65567		 305.27265			43387.38302		69.64400		324.00000 
 43692.65567		 896.72350			42795.93217		229.54400		875.00000 
 43692.65567		 305.27265			43387.38302		69.64400		324.00000 
 43692.65567		 896.72350			42795.93217		229.54400		875.00000 
 43692.65567		 305.27265			43387.38302		69.64400		324.00000 
 43692.65567		 896.72350			42795.93217		229.54400		875.00000 
 43692.65567		 305.27265			43387.38302		69.64400		324.00000 
 43692.65567		 896.72350			42795.93217		229.54400		875.00000 
 43692.65567		 305.27265			43387.38302		69.64400		324.00000 
 43692.65567		 896.72350			42795.93217		229.54400		875.00000 
 43692.65567		 305.27265			43387.38302		69.64400		324.00000 
 43692.65567		 896.72350			42795.93217		229.54400		875.00000 
 43692.65567		 305.27265			43387.38302		69.64400		324.00000 
 43692.65567		 896.72350			42795.93217		229.54400		875.00000 
 43692.65567		 305.27265			43387.38302		69.64400		324.00000 
 43692.65567		 896.72350			42795.93217		229.54400		875.00000 
 43692.65567		 305.27265			43387.38302		69.64400		324.00000 
 43692.65567		 896.72350			42795.93217		229.54400		875.00000 
 43692.65567		 305.27265			43387.38302		69.64400		324.00000 
 43692.65567		 896.72350			42795.93217		229.54400		875.00000 
 43692.65567		 305.27265			43387.38302		69.64400		324.00000 
 43692.65567		 896.72350			42795.93217		229.54400		875.00000 
 43692.65567		 305.27265			43387.38302		69.64400		324.00000 
 43692.65567		 896.72350			42795.93217		229.54400		875.00000 
 43692.65567		 305.27265			43387.38302		69.64400		324.00000 
 43692.65567		 896.72350			42795.93217		229.54400		875.00000 
 43692.65567		 305.27265			43387.38302		69.64400		324.00000 
 43692.65567		 896.72350			42795.93217		229.54400		875.00000 
 43692.65567		 305.27265			43387.38302		69.64400		324.00000 
 43692.65567		 896.72350			42795.93217		229.54400		875.00000 
 43692.65567		 305.27265			43387.38302		69.64400		324.00000 
 43692.65567		 896.72350			42795.93217		229.54400		875.00000 
 43692.65567		 305.27265			43387.38302		69.64400		324.00000 
 43692.65567		 896.72350			42795.93217		229.54400		875.00000 
 43692.65567		 305.27265			43387.38302		69.64400		324.00000 
 43692.65567		 896.72350			42795.93217		229.54400		875.00000 
 43692.65567		 305.27265			43387.38302		69.64400		324.00000 
 43692.65567		 896.72350			42795.93217		229.54400		875.00000 
 43692.65567		 305.27265			43387.38302		69.64400		324.00000 
 43692.65567		 896.72350			42795.93217		229.54400		875.00000 
 43692.65567		 305.27265			43387.38302		69.64400		324.00000 
 43692.65567		 896.72350			42795.93217		229.54400		875.00000 
 43692.65567		 305.27265			43387.38302		69.64400		324.00000 
 43692.65567		 896.72350			42795.93217		229.54400		875.00000 
 43692.65567		 305.27265			43387.38302		69.64400		324.00000 
 43692.65567		 896.72350			42795.93217		229.54400		875.00000 
 43692.65567		 305.27265			43387.38302		69.64400		324.00000 
 43692.65567		 896.72350			42795.93217		229.54400		875.00000 
 43692.65567		 305.27265			43387.38302		69.64400		324.00000 
 43692.65567		 896.72350			42795.93217		229.54400		875.00000 
 43692.65567		 305.27265			43387.38302		69.64400		324.00000 
 43692.65567		 896.72350			42795.93217		229.54400		875.00000 
 43692.65567		 305.27265			43387.38302		69.64400		324.00000 
 43692.65567		 896.72350			42795.93217		229.54400		875.00000 
 43692.65567		 305.27265			43387.38302		69.64400		324.00000 
 43692.65567		 896.72350			42795.93217		229.54400		875.00000 
 43692.65567		 305.27265			43387.38302		69.64400		324.00000 
 43692.65567		 896.72350			42795.93217		229.54400		875.00000 
 43692.65567		 305.27265			43387.38302		69.64400		324.00000 
 43692.65567		 896.72350			42795.93217		229.54400		875.00000 
 43692.65567		 305.27265			43387.38302		69.64400		324.00000 
 43692.65567		 896.72350			42795.93217		229.54400		875.00000 
 43692.65567		 305.27265			43387.38302		69.64400		324.00000 
 43692.65567		 896.72350			42795.93217		229.54400		875.00000 
 43692.65567		 305.27265			43387.38302		69.64400		324.00000 
 43692.65567		 896.72350			42795.93217		229.54400		875.00000 
 43692.65567		 305.27265			43387.38302		69.64400		324.00000 
 43692.65567		 896.72350			42795.93217		229.54400		875.00000 
 43692.65567		 305.27265			43387.38302		69.64400		324.00000 
 43692.65567		 896.72350			42795.93217		229.54400		875.00000 
 43692.65567		 305.27265			43387.38302		69.64400		324.00000 
 43692.65567		 896.72350			42795.93217		229.54400		875.00000 
 43692.65567		 305.27265			43387.38302		69.64400		324.00000 
 43692.65567		 896.72350			42795.93217		229.54400		875.00000 
 43692.65567		 305.27265			43387.38302		69.64400		324.00000 
 43692.65567		 896.72350			42795.93217		229.54400		875.00000 
 43692.65567		 305.27265			43387.38302		69.64400		324.00000 
 43692.65567		 896.72350			42795.93217		229.54400		875.00000 
 43692.65567		 305.27265			43387.38302		69.64400		324.00000 
 43692.65567		 896.72350			42795.93217		229.54400		875.00000 
 43692.65567		 305.27265			43387.38302		69.64400		324.00000 
 43692.65567		 896.72350			42795.93217		229.54400		875.00000 
 43692.65567		 305.27265			43387.38302		69.64400		324.00000 
 43692.65567		 896.72350			42795.93217		229.54400		875.00000 
 43692.65567		 305.27265			43387.38302		69.64400		324.00000 
 43692.65567		 896.72350			42795.93217		229.54400		875.00000 
 43692.65567		 305.27265			43387.38302		69.64400		324.00000 
 43692.65567		 896.72350			42795.93217		229.54400		875.00000 
 43692.65567		 305.27265			43387.38302		69.64400		324.00000 
 43692.65567		 896.72350			42795.93217		229.54400		875.00000 
 43692.65567		 305.27265			43387.38302		69.64400		324.00000 
 43692.65567		 896.72350			42795.93217		229.54400		875.00000 
 43692.65567		 305.27265			43387.38302		69.64400		324.00000 
 43692.65567		 896.72350			42795.93217		229.54400		875.00000 
 43692.65567		 305.27265			43387.38302		69.64400		324.00000 
 43692.65567		 896.72350			42795.93217		229.54400		875.00000 
 43692.65567		 305.27265			43387.38302		69.64400		324.00000 
 43692.65567		 896.72350			42795.93217		229.54400		875.00000 
 43692.65567		 305.27265			43387.38302		69.64400		324.00000 
 43692.65567		 896.72350			42795.93217		229.54400		875.00000 
 43692.65567		 305.27265			43387.38302		69.64400		324.00000 
 43692.65567		 896.72350			42795.93217		229.54400		875.00000 
 43692.65567		 305.27265			43387.38302		69.64400		324.00000 
 43692.65567		 896.72350			42795.93217		229.54400		875.00000 
 43692.65567		 305.27265			43387.38302		69.64400		324.00000 
 43692.65567		 896.72350			42795.93217		229.54400		875.00000 
 43692.65567		 305.27265			43387.38302		69.64400		324.00000 
 43692.65567		 896.72350			42795.93217		229.54400		875.00000 
 43692.65567		 305.27265			43387.38302		69.64400		324.00000 
 43692.65567		 896.72350			42795.93217		229.54400		875.00000 
 43692.65567		 305.27265			43387.38302		69.64400		324.00000 
 43692.65567		 896.72350			42795.93217		229.54400		875.00000 
 43692.65567		 305.27265			43387.38302		69.64400		324.00000 
 43692.65567		 896.72350			42795.93217		229.54400		875.00000 
 43692.65567		 305.27265			43387.38302		69.64400		324.00000 
 43692.65567		 896.72350			42795.93217		229.54400		875.00000 
 43692.65567		 305.27265			43387.38302		69.64400		324.00000 
 43692.65567		 896.72350			42795.93217		229.54400		875.00000 
 43692.65567		 305.27265			43387.38302		69.64400		324.00000 
 43692.65567		 896.72350			42795.93217		229.54400		875.00000 
 43692.65567		 305.27265			43387.38302		69.64400		324.00000 
 43692.65567		 896.72350			42795.93217		228.94600		875.00000 
 43692.65567		 305.27265			43387.38302		69.64400		324.00000 
 43692.65567		 896.72350			42795.93217		228.94600		875.00000 
 43692.65567		 305.27265			43387.38302		69.64400		324.00000 
 43692.65567		 896.72350			42795.93217		228.94600		875.00000 
 43692.65567		 305.27265			43387.38302		69.64400		324.00000 
 43692.65567		 896.72350			42795.93217		228.94600		875.00000 
 43692.65567		 305.27265			43387.38302		69.64400		324.00000 
 43692.65567		 896.72350			42795.93217		228.94600		875.00000 
 43692.65567		 305.27265			43387.38302		69.64400		324.00000 
 43692.65567		 896.72350			42795.93217		228.94600		875.00000 
 43692.65567		 305.27265			43387.38302		69.64400		324.00000 
 43692.65567		 896.72350			42795.93217		228.94600		875.00000 
 43692.65567		 305.27265			43387.38302		69.64400		324.00000 
 43692.65567		 896.72350			42795.93217		228.94600		875.00000 
 43692.65567		 305.27265			43387.38302		69.64400		324.00000 
 43692.65567		 896.72350			42795.93217		228.94600		875.00000 
 43692.65567		 305.27265			43387.38302		69.64400		324.00000 
 43692.65567		 896.72350			42795.93217		228.94600		875.00000 
 43692.65567		 305.27265			43387.38302		69.64400		324.00000 
 43692.65567		 896.72350			42795.93217		228.94600		875.00000 
 43692.65567		 305.27265			43387.38302		69.64400		324.00000 
 43692.65567		 896.72350			42795.93217		228.94600		875.00000 
 43692.65567		 305.27265			43387.38302		69.64400		324.00000 
 43692.65567		 896.72350			42795.93217		228.94600		875.00000 
 43692.65567		 305.27265			43387.38302		69.64400		324.00000 
 43692.65567		 896.72350			42795.93217		228.94600		875.00000 
 43692.65567		 305.27265			43387.38302		69.64400		324.00000 
 43692.65567		 896.72350			42795.93217		228.94600		875.00000 
 43692.65567		 305.27265			43387.38302		69.64400		324.00000 
 43692.65567		 896.72350			42795.93217		228.94600		875.00000 
 43692.65567		 305.27265			43387.38302		69.64400		324.00000 
 43692.65567		 896.72350			42795.93217		228.94600		875.00000 
 43692.65567		 305.27265			43387.38302		69.64400		324.00000 
 43692.65567		 896.72350			42795.93217		228.94600		875.00000 
 43692.65567		 305.27265			43387.38302		69.64400		324.00000 
 43692.65567		 896.72350			42795.93217		228.94600		875.00000 
 43692.65567		 305.27265			43387.38302		69.64400		324.00000 
 43692.65567		 896.72350			42795.93217		228.94600		875.00000 
 43692.65567		 305.27265			43387.38302		69.64400		324.00000 
 43692.65567		 896.72350			42795.93217		228.94600		875.00000 
 43692.65567		 305.27265			43387.38302		69.64400		324.00000 
 43692.65567		 896.72350			42795.93217		228.94600		875.00000 
 43692.65567		 305.27265			43387.38302		69.64400		324.00000 
 43692.65567		 896.72350			42795.93217		228.94600		875.00000 
 43692.65567		 305.27265			43387.38302		69.64400		324.00000 
 43692.65567		 896.72350			42795.93217		228.94600		875.00000 
 43692.65567		 305.27265			43387.38302		69.64400		324.00000 
 43692.65567		 896.72350			42795.93217		228.94600		875.00000 
 43692.65567		 305.27265			43387.38302		69.64400		324.00000 
 43692.65567		 896.72350			42795.93217		228.94600		875.00000 
 43692.65567		 305.27265			43387.38302		69.64400		324.00000 
 43692.65567		 896.72350			42795.93217		228.94600		875.00000 
 43692.65567		 305.27265			43387.38302		69.64400		324.00000 
 43692.65567		 896.72350			42795.93217		228.94600		875.00000 
 43692.65567		 305.27265			43387.38302		69.64400		324.00000 
 43692.65567		 896.72350			42795.93217		228.94600		875.00000 
 43692.65567		 305.27265			43387.38302		69.64400		324.00000 
 43692.65567		 896.72350			42795.93217		228.94600		875.00000 
 43692.65567		 305.27265			43387.38302		69.64400		324.00000 
 43692.65567		 896.72350			42795.93217		228.94600		875.00000 
 43692.65567		 305.27265			43387.38302		69.64400		324.00000 
 43692.65567		 896.72350			42795.93217		228.94600		875.00000 
 43692.65567		 305.27265			43387.38302		69.64400		324.00000 
 43692.65567		 896.72350			42795.93217		228.94600		875.00000 
 43692.65567		 305.27265			43387.38302		69.64400		324.00000 
 43692.65567		 896.72350			42795.93217		228.94600		875.00000 
 43692.65567		 305.27265			43387.38302		69.64400		324.00000 
 43692.65567		 896.72350			42795.93217		228.94600		875.00000 
 43692.65567		 305.27265			43387.38302		69.64400		324.00000 
 43692.65567		 896.72350			42795.93217		228.94600		875.00000 
 43692.65567		 305.27265			43387.38302		69.64400		324.00000 
 43692.65567		 896.72350			42795.93217		228.94600		875.00000 
 43692.65567		 305.27265			43387.38302		69.64400		324.00000 
 43692.65567		 896.72350			42795.93217		228.94600		875.00000 
 43692.65567		 305.27265			43387.38302		69.64400		324.00000 
 43692.65567		 896.72350			42795.93217		228.94600		875.00000 
 43692.65567		 305.27265			43387.38302		69.64400		324.00000 
 43692.65567		 896.72350			42795.93217		228.94600		875.00000 
 43692.65567		 305.27265			43387.38302		69.64400		324.00000 
 43692.65567		 896.72350			42795.93217		228.94600		875.00000 
 43692.65567		 305.27265			43387.38302		69.64400		324.00000 
 43692.65567		 896.72350			42795.93217		228.94600		875.00000 
 43692.65567		 305.27265			43387.38302		69.64400		324.00000 
 43692.65567		 896.72350			42795.93217		228.94600		875.00000 
 43692.65567		 305.27265			43387.38302		69.64400		324.00000 
 43692.65567		 896.72350			42795.93217		228.94600		875.00000 
 43692.65567		 305.27265			43387.38302		69.64400		324.00000 
 43692.65567		 896.72350			42795.93217		228.94600		875.00000 
 43692.65567		 305.27265			43387.38302		69.64400		324.00000 
 43692.65567		 896.72350			42795.93217		228.94600		875.00000 
 43692.65567		 305.27265			43387.38302		69.64400		324.00000 
 43692.65567		 896.72350			42795.93217		228.94600		875.00000 
 43692.65567		 305.27265			43387.38302		69.64400		324.00000 
 43692.65567		 896.72350			42795.93217		228.94600		875.00000 
 43692.65567		 305.27265			43387.38302		69.64400		324.00000 
 43692.65567		 896.72350			42795.93217		228.94600		875.00000 
 43692.65567		 305.27265			43387.38302		69.64400		324.00000 
 43692.65567		 896.72350			42795.93217		228.94600		875.00000 
 43692.65567		 305.27265			43387.38302		69.64400		324.00000 
 43692.65567		 896.72350			42795.93217		228.94600		875.00000 
 43692.65567		 305.27265			43387.38302		69.64400		324.00000 
 43692.65567		 896.72350			42795.93217		228.94600		875.00000 
 43692.65567		 305.27265			43387.38302		69.64400		324.00000 
 43692.65567		 896.72350			42795.93217		228.94600		875.00000 
 43692.65567		 305.27265			43387.38302		69.64400		324.00000 
 43692.65567		 896.72350			42795.93217		228.94600		875.00000 
 43692.65567		 305.27265			43387.38302		69.64400		324.00000 
 43692.65567		 896.72350			42795.93217		228.94600		875.00000 
 43692.65567		 305.27265			43387.38302		69.64400		324.00000 
 43692.65567		 896.72350			42795.93217		228.94600		875.00000 
 43692.65567		 305.27265			43387.38302		69.64400		324.00000 
 43692.65567		 896.72350			42795.93217		228.94600		875.00000 
 43692.65567		 305.27265			43387.38302		69.64400		324.00000 
 43692.65567		 896.72350			42795.93217		228.94600		875.00000 
 43692.65567		 305.27265			43387.38302		69.64400		324.00000 
 43692.65567		 896.72350			42795.93217		228.94600		875.00000 
 43692.65567		 305.27265			43387.38302		69.64400		324.00000 
 43692.65567		 896.72350			42795.93217		228.94600		875.00000 
 43692.65567		 305.27265			43387.38302		69.64400		324.00000 
 43692.65567		 896.72350			42795.93217		228.94600		875.00000 
 43692.65567		 305.27265			43387.38302		69.64400		324.00000 
 43692.65567		 896.72350			42795.93217		228.94600		875.00000 
 43692.65567		 305.27265			43387.38302		69.64400		324.00000 
 43692.65567		 896.72350			42795.93217		228.94600		875.00000 
 43692.65567		 305.27265			43387.38302		69.64400		324.00000 
 43692.65567		 896.72350			42795.93217		228.94600		875.00000 
 43692.65567		 305.27265			43387.38302		69.64400		324.00000 
 43692.65567		 896.72350			42795.93217		228.94600		875.00000 
 43692.65567		 305.27265			43387.38302		69.64400		324.00000 
 43692.65567		 896.72350			42795.93217		228.94600		875.00000 
 43692.65567		 305.27265			43387.38302		69.64400		324.00000 
 43692.65567		 896.72350			42795.93217		228.94600		875.00000 
 43692.65567		 305.27265			43387.38302		69.64400		324.00000 
 43692.65567		 896.72350			42795.93217		228.94600		875.00000 
 43692.65567		 305.27265			43387.38302		69.64400		324.00000 
 43692.65567		 896.72350			42795.93217		228.94600		875.00000 
 43692.65567		 305.27265			43387.38302		69.64400		324.00000 
 43692.65567		 896.72350			42795.93217		228.94600		875.00000 
 43692.65567		 305.27265			43387.38302		69.64400		324.00000 
 43692.65567		 896.72350			42795.93217		228.94600		875.00000 
 43692.65567		 305.27265			43387.38302		69.64400		324.00000 
 43692.65567		 896.72350			42795.93217		228.94600		875.00000 
 43692.65567		 305.27265			43387.38302		69.64400		324.00000 
 43692.65567		 896.72350			42795.93217		228.94600		875.00000 
 43692.65567		 305.27265			43387.38302		69.64400		324.00000 
 43692.65567		 896.72350			42795.93217		228.94600		875.00000 
 43692.65567		 305.27265			43387.38302		69.64400		324.00000 
 43692.65567		 896.72350			42795.93217		228.94600		875.00000 
 43692.65567		 305.27265			43387.38302		69.64400		324.00000 
 43692.65567		 896.72350			42795.93217		228.94600		875.00000 
 43692.65567		 305.27265			43387.38302		69.64400		324.00000 
 43692.65567		 896.72350			42795.93217		228.94600		875.00000 
 43692.65567		 305.27265			43387.38302		69.64400		324.00000 
 43692.65567		 896.72350			42795.93217		228.94600		875.00000 
 43692.65567		 305.27265			43387.38302		69.64400		324.00000 
 43692.65567		 896.72350			42795.93217		228.94600		875.00000 
 43692.65567		 305.27265			43387.38302		69.64400		324.00000 
 43692.65567		 896.72350			42795.93217		228.94600		875.00000 
 43692.65567		 305.27265			43387.38302		69.64400		324.00000 
 43692.65567		 896.72350			42795.93217		228.94600		875.00000 
 43692.65567		 305.27265			43387.38302		69.64400		324.00000 
 43692.65567		 896.72350			42795.93217		228.94600		875.00000 
 43692.65567		 305.27265			43387.38302		69.64400		324.00000 
 43692.65567		 896.72350			42795.93217		228.94600		875.00000 
 43692.65567		 305.27265			43387.38302		69.64400		324.00000 
 43692.65567		 896.72350			42795.93217		228.94600		875.00000 
 43692.65567		 305.27265			43387.38302		69.64400		324.00000 
 43692.65567		 896.72350			42795.93217		228.94600		875.00000 
 43692.65567		 305.27265			43387.38302		69.64400		324.00000 
 43692.65567		 896.72350			42795.93217		228.94600		875.00000 
 43692.65567		 305.27265			43387.38302		69.64400		324.00000 
 43692.65567		 896.72350			42795.93217		228.94600		875.00000 
 43692.65567		 305.27265			43387.38302		69.64400		324.00000 
 43692.65567		 896.72350			42795.93217		228.94600		875.00000 
 43692.65567		 305.27265			43387.38302		69.64400		324.00000 
 43692.65567		 896.72350			42795.93217		228.94600		875.00000 
 43692.65567		 305.27265			43387.38302		69.64400		324.00000 
 43692.65567		 896.72350			42795.93217		228.94600		875.00000 
 43692.65567		 305.27265			43387.38302		69.64400		324.00000 
 43692.65567		 896.72350			42795.93217		228.94600		875.00000 
 43692.65567		 305.27265			43387.38302		69.64400		324.00000 
 43692.65567		 896.72350			42795.93217		228.94600		875.00000 
 43692.65567		 305.27265			43387.38302		69.64400		324.00000 
 43692.65567		 896.72350			42795.93217		228.94600		875.00000 
 43692.65567		 305.27265			43387.38302		69.64400		324.00000 
 43692.65567		 896.72350			42795.93217		228.94600		875.00000 
 43692.65567		 305.27265			43387.38302		69.64400		324.00000 
 43692.65567		 896.72350			42795.93217		228.94600		875.00000 
 43692.65567		 305.27265			43387.38302		69.64400		324.00000 
 43692.65567		 896.72350			42795.93217		228.94600		875.00000 
 43692.65567		 305.27265			43387.38302		69.64400		324.00000 
 43692.65567		 896.72350			42795.93217		228.94600		875.00000 
 43692.65567		 305.27265			43387.38302		69.64400		324.00000 
 43692.65567		 896.72350			42795.93217		228.94600		875.00000 
 43692.65567		 305.27265			43387.38302		69.64400		324.00000 
 43692.65567		 896.72350			42795.93217		228.94600		875.00000 
 43692.65567		 305.27265			43387.38302		69.64400		324.00000 
 43692.65567		 896.72350			42795.93217		228.94600		875.00000 
 43692.65567		 305.27265			43387.38302		69.64400		324.00000 
 43692.65567		 896.72350			42795.93217		228.94600		875.00000 
 43692.65567		 305.27265			43387.38302		69.64400		324.00000 
 43692.65567		 896.72350			42795.93217		228.94600		875.00000 
 43692.65567		 305.27265			43387.38302		69.64400		324.00000 
 43692.65567		 896.72350			42795.93217		228.94600		875.00000 
 43692.65567		 305.27265			43387.38302		69.64400		324.00000 
 43692.65567		 896.72350			42795.93217		228.94600		875.00000 
 43692.65567		 305.27265			43387.38302		69.64400		324.00000 
 43692.65567		 896.72350			42795.93217		228.94600		875.00000 
 43692.65567		 305.27265			43387.38302		69.64400		324.00000 
 43692.65567		 896.72350			42795.93217		228.94600		875.00000 
 43692.65567		 305.27265			43387.38302		69.64400		324.00000 
 43692.65567		 896.72350			42795.93217		228.94600		875.00000 
 43692.65567		 305.27265			43387.38302		69.64400		324.00000 
 43692.65567		 896.72350			42795.93217		228.94600		875.00000 
 43692.65567		 305.27265			43387.38302		69.64400		324.00000 
 43692.65567		 896.72350			42795.93217		228.94600		875.00000 
 43692.65567		 305.27265			43387.38302		69.64400		324.00000 
 43692.65567		 896.72350			42795.93217		228.94600		875.00000 
 43692.65567		 305.27265			43387.38302		69.64400		324.00000 
 43692.65567		 896.72350			42795.93217		228.94600		875.00000 
 43692.65567		 305.27265			43387.38302		69.64400		324.00000 
 43692.65567		 896.72350			42795.93217		228.94600		875.00000 
 43692.65567		 305.27265			43387.38302		69.64400		324.00000 
 43692.65567		 896.72350			42795.93217		228.94600		875.00000 
 43692.65567		 305.27265			43387.38302		69.64400		324.00000 
 43692.65567		 896.72350			42795.93217		228.94600		875.00000 
 43692.65567		 305.27265			43387.38302		69.64400		324.00000 
 43692.65567		 896.72350			42795.93217		228.94600		875.00000 
 43692.65567		 305.27265			43387.38302		69.64400		324.00000 
 43692.65567		 896.72350			42795.93217		228.94600		875.00000 
 43692.65567		 305.27265			43387.38302		69.64400		324.00000 
 43692.65567		 896.72350			42795.93217		228.94600		875.00000 
 43692.65567		 305.27265			43387.38302		69.64400		324.00000 
 43692.65567		 896.72350			42795.93217		228.94600		875.00000 
 43692.65567		 305.27265			43387.38302		69.64400		324.00000 
 43692.65567		 896.72350			42795.93217		228.94600		875.00000 
 43692.65567		 305.27265			43387.38302		69.64400		324.00000 
 43692.65567		 896.72350			42795.93217		228.94600		875.00000 
 43692.65567		 305.27265			43387.38302		69.64400		324.00000 
 43692.65567		 896.72350			42795.93217		228.94600		875.00000 
 43692.65567		 305.27265			43387.38302		69.64400		324.00000 
 43692.65567		 896.72350			42795.93217		228.94600		875.00000 
 43692.65567		 305.27265			43387.38302		69.64400		324.00000 
 43692.65567		 896.72350			42795.93217		228.94600		875.00000 
 43692.65567		 305.27265			43387.38302		69.64400		324.00000 
 43692.65567		 896.72350			42795.93217		228.94600		875.00000 
 43692.65567		 305.27265			43387.38302		69.64400		324.00000 
 43692.65567		 896.72350			42795.93217		228.94600		875.00000 
 43692.65567		 305.27265			43387.38302		69.64400		324.00000 
 43692.65567		 896.72350			42795.93217		228.94600		875.00000 
 43692.65567		 305.27265			43387.38302		69.64400		324.00000 
 43692.65567		 896.72350			42795.93217		228.94600		875.00000 
 43692.65567		 305.27265			43387.38302		69.64400		324.00000 
 43692.65567		 896.72350			42795.93217		228.94600		875.00000 
 43692.65567		 305.27265			43387.38302		69.64400		324.00000 
 43692.65567		 896.72350			42795.93217		228.94600		875.00000 
 43692.65567		 305.27265			43387.38302		69.64400		324.00000 
 43692.65567		 896.72350			42795.93217		228.94600		875.00000 
 43692.65567		 305.27265			43387.38302		69.64400		324.00000 
 43692.65567		 896.72350			42795.93217		228.94600		875.00000 
 43692.65567		 305.27265			43387.38302		69.64400		324.00000 
 43692.65567		 896.72350			42795.93217		228.94600		875.00000 
 43692.65567		 305.27265			43387.38302		69.64400		324.00000 
 43692.65567		 896.72350			42795.93217		228.94600		875.00000 
 43692.65567		 305.27265			43387.38302		69.64400		324.00000 
 43692.65567		 896.72350			42795.93217		228.94600		875.00000 
 43692.65567		 305.27265			43387.38302		69.64400		324.00000 
 43692.65567		 896.72350			42795.93217		228.94600		875.00000 
 43692.65567		 305.27265			43387.38302		69.64400		324.00000 
 43692.65567		 896.72350			42795.93217		228.94600		875.00000 
 43692.65567		 305.27265			43387.38302		69.64400		324.00000 
 43692.65567		 896.72350			42795.93217		228.94600		875.00000 
 43692.65567		 305.27265			43387.38302		69.64400		324.00000 
 43692.65567		 896.72350			42795.93217		228.94600		875.00000 
 43692.65567		 305.27265			43387.38302		69.64400		324.00000 
 43692.65567		 896.72350			42795.93217		228.94600		875.00000 
 43692.65567		 305.27265			43387.38302		69.64400		324.00000 
 43692.65567		 896.72350			42795.93217		228.94600		875.00000 
 43692.65567		 305.27265			43387.38302		69.64400		324.00000 
 43692.65567		 896.72350			42795.93217		228.94600		875.00000 
 43692.65567		 305.27265			43387.38302		69.64400		324.00000 
 43692.65567		 896.72350			42795.93217		228.94600		875.00000 
 43692.65567		 305.27265			43387.38302		69.64400		324.00000 
 43692.65567		 896.72350			42795.93217		228.94600		875.00000 
 43692.65567		 305.27265			43387.38302		69.64400		324.00000 
 43692.65567		 896.72350			42795.93217		228.94600		875.00000 
 43692.65567		 305.27265			43387.38302		69.64400		324.00000 
 43692.65567		 896.72350			42795.93217		228.94600		875.00000 
 43692.65567		 305.27265			43387.38302		69.64400		324.00000 
 43692.65567		 896.72350			42795.93217		228.94600		875.00000 
 43692.65567		 305.27265			43387.38302		69.64400		324.00000 
 43692.65567		 896.72350			42795.93217		228.94600		875.00000 
 43692.65567		 305.27265			43387.38302		69.64400		324.00000 
 43692.65567		 896.72350			42795.93217		228.94600		875.00000 
 43692.65567		 305.27265			43387.38302		69.64400		324.00000 
 43692.65567		 896.72350			42795.93217		228.94600		875.00000 
 43692.65567		 305.27265			43387.38302		69.64400		324.00000 
 43692.65567		 896.72350			42795.93217		228.94600		875.00000 
 43692.65567		 305.27265			43387.38302		69.64400		324.00000 
 43692.65567		 896.72350			42795.93217		228.94600		875.00000 
 43692.65567		 305.27265			43387.38302		69.64400		324.00000 
 43692.65567		 896.72350			42795.93217		228.94600		875.00000 
 43692.65567		 305.27265			43387.38302		69.64400		324.00000 
 43692.65567		 896.72350			42795.93217		228.94600		875.00000 
 43692.65567		 305.27265			43387.38302		69.64400		324.00000 
 43692.65567		 896.72350			42795.93217		228.94600		875.00000 
 43692.65567		 305.27265			43387.38302		69.64400		324.00000 
 43692.65567		 896.72350			42795.93217		228.94600		875.00000 
 43692.65567		 305.27265			43387.38302		69.64400		324.00000 
 43692.65567		 896.72350			42795.93217		228.94600		875.00000 
 43692.65567		 305.27265			43387.38302		69.64400		324.00000 
 43692.65567		 896.72350			42795.93217		228.94600		875.00000 
 43692.65567		 305.27265			43387.38302		69.64400		324.00000 
 43692.65567		 896.72350			42795.93217		228.94600		875.00000 
 43692.65567		 305.27265			43387.38302		69.64400		324.00000 
 43692.65567		 896.72350			42795.93217		228.94600		875.00000 
 43692.65567		 305.27265			43387.38302		69.64400		324.00000 
 43692.65567		 896.72350			42795.93217		228.94600		875.00000 
 43692.65567		 305.27265			43387.38302		69.64400		324.00000 
 43692.65567		 896.72350			42795.93217		228.94600		875.00000 
 43692.65567		 305.27265			43387.38302		69.64400		324.00000 
 43692.65567		 896.72350			42795.93217		228.94600		875.00000 
 43692.65567		 305.27265			43387.38302		69.64400		324.00000 
 43692.65567		 896.72350			42795.93217		228.94600		875.00000 
 43692.65567		 305.27265			43387.38302		69.64400		324.00000 
 43692.65567		 896.72350			42795.93217		228.94600		875.00000 
 43692.65567		 305.27265			43387.38302		69.64400		324.00000 
 43692.65567		 896.72350			42795.93217		228.94600		875.00000 
 43692.65567		 305.27265			43387.38302		69.64400		324.00000 
 43692.65567		 896.72350			42795.93217		228.94600		875.00000 
 43692.65567		 305.27265			43387.38302		69.64400		324.00000 
 43692.65567		 896.72350			42795.93217		228.94600		875.00000 
 43692.65567		 305.27265			43387.38302		69.64400		324.00000 
 43692.65567		 896.72350			42795.93217		228.94600		875.00000 
 43692.65567		 305.27265			43387.38302		69.64400		324.00000 
 43692.65567		 896.72350			42795.93217		228.94600		875.00000 
 43692.65567		 305.27265			43387.38302		69.64400		324.00000 
 43692.65567		 896.72350			42795.93217		228.94600		875.00000 
 43692.65567		 305.27265			43387.38302		69.64400		324.00000 
 43692.65567		 896.72350			42795.93217		228.94600		875.00000 
 43692.65567		 305.27265			43387.38302		69.64400		324.00000 
 43692.65567		 896.72350			42795.93217		228.94600		875.00000 
 43692.65567		 305.27265			43387.38302		69.64400		324.00000 
 43692.65567		 896.72350			42795.93217		228.94600		875.00000 
 43692.65567		 305.27265			43387.38302		69.64400		324.00000 
 43692.65567		 896.72350			42795.93217		228.94600		875.00000 
 43692.65567		 305.27265			43387.38302		69.64400		324.00000 
 43692.65567		 896.72350			42795.93217		228.94600		875.00000 
 43692.65567		 305.27265			43387.38302		69.64400		324.00000 
 43692.65567		 896.72350			42795.93217		228.94600		875.00000 
 43692.65567		 305.27265			43387.38302		69.64400		324.00000 
 43692.65567		 896.72350			42795.93217		228.94600		875.00000 
 43692.65567		 305.27265			43387.38302		69.64400		324.00000 
 43692.65567		 896.72350			42795.93217		228.94600		875.00000 
 43692.65567		 305.27265			43387.38302		69.64400		324.00000 
 43692.65567		 896.72350			42795.93217		228.94600		875.00000 
 43692.65567		 305.27265			43387.38302		69.64400		324.00000 
 43692.65567		 896.72350			42795.93217		228.94600		875.00000 
 43692.65567		 305.27265			43387.38302		69.64400		324.00000 
 43692.65567		 896.72350			42795.93217		228.94600		875.00000 
 43692.65567		 305.27265			43387.38302		69.64400		324.00000 
 43692.65567		 896.72350			42795.93217		228.94600		875.00000 
 43692.65567		 305.27265			43387.38302		69.64400		324.00000 
 43692.65567		 896.72350			42795.93217		228.94600		875.00000 
 43692.65567		 305.27265			43387.38302		69.64400		324.00000 
 43692.65567		 896.72350			42795.93217		228.94600		875.00000 
 43692.65567		 305.27265			43387.38302		69.64400		324.00000 
 43692.65567		 896.72350			42795.93217		228.94600		875.00000 
 43692.65567		 305.27265			43387.38302		69.64400		324.00000 
 43692.65567		 896.72350			42795.93217		228.94600		875.00000 
 43692.65567		 305.27265			43387.38302		69.64400		324.00000 
 43692.65567		 896.72350			42795.93217		228.94600		875.00000 
 43692.65567		 305.27265			43387.38302		69.64400		324.00000 
 43692.65567		 896.72350			42795.93217		228.94600		875.00000 
 43692.65567		 305.27265			43387.38302		69.64400		324.00000 
 43692.65567		 896.72350			42795.93217		228.94600		875.00000 
 43692.65567		 305.27265			43387.38302		69.64400		324.00000 
 43692.65567		 896.72350			42795.93217		228.94600		875.00000 
 43692.65567		 305.27265			43387.38302		69.64400		324.00000 
 43692.65567		 896.72350			42795.93217		228.94600		875.00000 
 43692.65567		 305.27265			43387.38302		69.64400		324.00000 
 43692.65567		 896.72350			42795.93217		228.94600		875.00000 
 43692.65567		 305.27265			43387.38302		69.64400		324.00000 
 43692.65567		 896.72350			42795.93217		228.94600		875.00000 
 43692.65567		 305.27265			43387.38302		69.64400		324.00000 
 43692.65567		 896.72350			42795.93217		228.94600		875.00000 
 43692.65567		 305.27265			43387.38302		69.64400		324.00000 
 43692.65567		 896.72350			42795.93217		228.94600		875.00000 
 43692.65567		 305.27265			43387.38302		69.64400		324.00000 
 43692.65567		 896.72350			42795.93217		228.94600		875.00000 
 43692.65567		 305.27265			43387.38302		69.64400		324.00000 
 43692.65567		 896.72350			42795.93217		228.94600		875.00000 
 43692.65567		 305.27265			43387.38302		69.64400		324.00000 
 43692.65567		 896.72350			42795.93217		228.94600		875.00000 
 43692.65567		 305.27265			43387.38302		69.64400		324.00000 
 43692.65567		 896.72350			42795.93217		228.94600		875.00000 
 43692.65567		 305.27265			43387.38302		69.64400		324.00000 
 43692.65567		 896.72350			42795.93217		228.94600		875.00000 
 43692.65567		 305.27265			43387.38302		69.64400		324.00000 
 43692.65567		 896.72350			42795.93217		228.94600		875.00000 
 43692.65567		 305.27265			43387.38302		69.64400		324.00000 
 43692.65567		 896.72350			42795.93217		228.94600		875.00000 
 43692.65567		 305.27265			43387.38302		69.64400		324.00000 
 43692.65567		 896.72350			42795.93217		228.94600		875.00000 
 43692.65567		 305.27265			43387.38302		69.64400		324.00000 
 43692.65567		 896.72350			42795.93217		228.94600		875.00000 
 43692.65567		 305.27265			43387.38302		69.64400		324.00000 
 43692.65567		 896.72350			42795.93217		228.94600		875.00000 
 43692.65567		 305.27265			43387.38302		69.64400		324.00000 
 43692.65567		 896.72350			42795.93217		228.94600		875.00000 
 43692.65567		 305.27265			43387.38302		69.64400		324.00000 
 43692.65567		 896.72350			42795.93217		228.94600		875.00000 
 43692.65567		 305.27265			43387.38302		69.64400		324.00000 
 43692.65567		 896.72350			42795.93217		228.94600		875.00000 
 43692.65567		 305.27265			43387.38302		69.64400		324.00000 
 43692.65567		 896.72350			42795.93217		228.94600		875.00000 
 43692.65567		 305.27265			43387.38302		69.64400		324.00000 
 43692.65567		 896.72350			42795.93217		228.94600		875.00000 
 43692.65567		 305.27265			43387.38302		69.64400		324.00000 
 43692.65567		 896.72350			42795.93217		228.94600		875.00000 
 43692.65567		 305.27265			43387.38302		69.64400		324.00000 
 43692.65567		 896.72350			42795.93217		228.94600		875.00000 
 43692.65567		 305.27265			43387.38302		69.64400		324.00000 
 43692.65567		 896.72350			42795.93217		228.94600		875.00000 
 43692.65567		 305.27265			43387.38302		69.64400		324.00000 
 43692.65567		 896.72350			42795.93217		228.94600		875.00000 
 43692.65567		 305.27265			43387.38302		69.64400		324.00000 
 43692.65567		 896.72350			42795.93217		228.94600		875.00000 
 43692.65567		 305.27265			43387.38302		69.64400		324.00000 
 43692.65567		 896.72350			42795.93217		228.94600		875.00000 
 43692.65567		 305.27265			43387.38302		69.64400		324.00000 
 43692.65567		 896.72350			42795.93217		228.94600		875.00000 
 43692.65567		 305.27265			43387.38302		69.64400		324.00000 
 43692.65567		 896.72350			42795.93217		228.94600		875.00000 
 43692.65567		 305.27265			43387.38302		69.64400		324.00000 
 43692.65567		 896.72350			42795.93217		228.94600		875.00000 
 43692.65567		 305.27265			43387.38302		69.64400		324.00000 
 43692.65567		 896.72350			42795.93217		228.94600		875.00000 
 43692.65567		 305.27265			43387.38302		69.64400		324.00000 
 43692.65567		 896.72350			42795.93217		228.94600		875.00000 
 43692.65567		 305.27265			43387.38302		69.64400		324.00000 
 43692.65567		 896.72350			42795.93217		228.94600		875.00000 
 43692.65567		 305.27265			43387.38302		69.64400		324.00000 
 43692.65567		 896.72350			42795.93217		228.94600		875.00000 
 43692.65567		 305.27265			43387.38302		69.64400		324.00000 
 43692.65567		 896.72350			42795.93217		228.94600		875.00000 
 43692.65567		 305.27265			43387.38302		69.64400		324.00000 
 43692.65567		 896.72350			42795.93217		228.94600		875.00000 
 43692.65567		 305.27265			43387.38302		69.64400		324.00000 
 43692.65567		 896.72350			42795.93217		228.94600		875.00000 
 43692.65567		 305.27265			43387.38302		69.64400		324.00000 
 43692.65567		 896.72350			42795.93217		228.94600		875.00000 
 43692.65567		 305.27265			43387.38302		69.64400		324.00000 
 43692.65567		 896.72350			42795.93217		228.94600		875.00000 
 43692.65567		 305.27265			43387.38302		69.64400		324.00000 
 43692.65567		 896.72350			42795.93217		228.94600		875.00000 
 43692.65567		 305.27265			43387.38302		69.64400		324.00000 
 43692.65567		 896.72350			42795.93217		228.94600		875.00000 
 43692.65567		 305.27265			43387.38302		69.64400		324.00000 
 43692.65567		 896.72350			42795.93217		228.94600		875.00000 
 43692.65567		 305.27265			43387.38302		69.64400		324.00000 
 43692.65567		 896.72350			42795.93217		228.94600		875.00000 
 43692.65567		 305.27265			43387.38302		69.64400		324.00000 
 43692.65567		 896.72350			42795.93217		228.94600		875.00000 
 43692.65567		 305.27265			43387.38302		69.64400		324.00000 
 43692.65567		 896.72350			42795.93217		228.94600		875.00000 
 43692.65567		 305.27265			43387.38302		69.64400		324.00000 
 43692.65567		 896.72350			42795.93217		228.94600		875.00000 
 43692.65567		 305.27265			43387.38302		69.64400		324.00000 
 43692.65567		 896.72350			42795.93217		228.94600		875.00000 
 43692.65567		 305.27265			43387.38302		69.64400		324.00000 
 43692.65567		 896.72350			42795.93217		228.94600		875.00000 
 43692.65567		 305.27265			43387.38302		69.64400		324.00000 
 43692.65567		 896.72350			42795.93217		228.94600		875.00000 
 43692.65567		 305.27265			43387.38302		69.64400		324.00000 
 43692.65567		 896.72350			42795.93217		228.94600		875.00000 
 43692.65567		 305.27265			43387.38302		69.64400		324.00000 
 43692.65567		 896.72350			42795.93217		228.94600		875.00000 
 43692.65567		 305.27265			43387.38302		69.64400		324.00000 
 43692.65567		 896.72350			42795.93217		228.94600		875.00000 
 43692.65567		 305.27265			43387.38302		69.64400		324.00000 
 43692.65567		 896.72350			42795.93217		228.94600		875.00000 
 43692.65567		 305.27265			43387.38302		69.64400		324.00000 
 43692.65567		 896.72350			42795.93217		228.94600		875.00000 
 43692.65567		 305.27265			43387.38302		69.64400		324.00000 
 43692.65567		 896.72350			42795.93217		228.94600		875.00000 
 43692.65567		 305.27265			43387.38302		69.64400		324.00000 
 43692.65567		 896.72350			42795.93217		228.94600		875.00000 
 43692.65567		 305.27265			43387.38302		69.64400		324.00000 
 43692.65567		 896.72350			42795.93217		228.94600		875.00000 
 43692.65567		 305.27265			43387.38302		69.64400		324.00000 
 43692.65567		 896.72350			42795.93217		228.94600		875.00000 
 43692.65567		 305.27265			43387.38302		69.64400		324.00000 
 43692.65567		 896.72350			42795.93217		228.94600		875.00000 
 43692.65567		 305.27265			43387.38302		69.64400		324.00000 
 43692.65567		 896.72350			42795.93217		228.94600		875.00000 
 43692.65567		 305.27265			43387.38302		69.64400		324.00000 
 43692.65567		 896.72350			42795.93217		228.94600		875.00000 
 43692.65567		 305.27265			43387.38302		69.64400		324.00000 
 43692.65567		 896.72350			42795.93217		228.94600		875.00000 
 43692.65567		 305.27265			43387.38302		69.64400		324.00000 
 43692.65567		 896.72350			42795.93217		228.94600		875.00000 
 43692.65567		 305.27265			43387.38302		69.64400		324.00000 
 43692.65567		 896.72350			42795.93217		228.94600		875.00000 
 43692.65567		 305.27265			43387.38302		69.64400		324.00000 
 43692.65567		 896.72350			42795.93217		228.94600		875.00000 
 43692.65567		 305.27265			43387.38302		69.64400		324.00000 
 43692.65567		 896.72350			42795.93217		228.94600		875.00000 
 43692.65567		 305.27265			43387.38302		69.64400		324.00000 
 43692.65567		 896.72350			42795.93217		228.94600		875.00000 
 43692.65567		 305.27265			43387.38302		69.64400		324.00000 
 43692.65567		 896.72350			42795.93217		228.94600		875.00000 
 43692.65567		 305.27265			43387.38302		69.64400		324.00000 
 43692.65567		 896.72350			42795.93217		228.94600		875.00000 
 43692.65567		 305.27265			43387.38302		69.64400		324.00000 
 43692.65567		 896.72350			42795.93217		228.94600		875.00000 
 43692.65567		 305.27265			43387.38302		69.64400		324.00000 
 43692.65567		 896.72350			42795.93217		228.94600		875.00000 
 43692.65567		 305.27265			43387.38302		69.64400		324.00000 
 43692.65567		 896.72350			42795.93217		228.94600		875.00000 
 43692.65567		 305.27265			43387.38302		69.64400		324.00000 
 43692.65567		 896.72350			42795.93217		228.94600		875.00000 
 43692.65567		 305.27265			43387.38302		69.64400		324.00000 
 43692.65567		 896.72350			42795.93217		228.94600		875.00000 
 43692.65567		 305.27265			43387.38302		69.64400		324.00000 
 43692.65567		 896.72350			42795.93217		228.94600		875.00000 
 43692.65567		 305.27265			43387.38302		69.64400		324.00000 
 43692.65567		 896.72350			42795.93217		228.94600		875.00000 
 43692.65567		 305.27265			43387.38302		69.64400		324.00000 
 43692.65567		 896.72350			42795.93217		228.94600		875.00000 
 43692.65567		 305.27265			43387.38302		69.64400		324.00000 
 43692.65567		 896.72350			42795.93217		228.94600		875.00000 
 43692.65567		 305.27265			43387.38302		69.64400		324.00000 
 43692.65567		 896.72350			42795.93217		228.94600		875.00000 
 43692.65567		 305.27265			43387.38302		69.64400		324.00000 
 43692.65567		 896.72350			42795.93217		228.94600		875.00000 
 43692.65567		 305.27265			43387.38302		69.64400		324.00000 
 43692.65567		 896.72350			42795.93217		228.94600		875.00000 
 43692.65567		 305.27265			43387.38302		69.64400		324.00000 
 43692.65567		 896.72350			42795.93217		228.94600		875.00000 
 43692.65567		 305.27265			43387.38302		69.64400		324.00000 
 43692.65567		 896.72350			42795.93217		228.94600		875.00000 
 43692.65567		 305.27265			43387.38302		69.64400		324.00000 
 43692.65567		 896.72350			42795.93217		228.94600		875.00000 
 43692.65567		 305.27265			43387.38302		69.64400		324.00000 
 43692.65567		 896.72350			42795.93217		228.94600		875.00000 
 43692.65567		 305.27265			43387.38302		69.64400		324.00000 
 43692.65567		 896.72350			42795.93217		228.94600		875.00000 
 43692.65567		 305.27265			43387.38302		69.64400		324.00000 
 43692.65567		 896.72350			42795.93217		228.94600		875.00000 
 43692.65567		 305.27265			43387.38302		69.64400		324.00000 
 43692.65567		 896.72350			42795.93217		228.94600		875.00000 
 43692.65567		 305.27265			43387.38302		69.64400		324.00000 
 43692.65567		 896.72350			42795.93217		228.94600		875.00000 
 43692.65567		 305.27265			43387.38302		69.64400		324.00000 
 43692.65567		 896.72350			42795.93217		228.94600		875.00000 
 43692.65567		 305.27265			43387.38302		69.64400		324.00000 
 43692.65567		 896.72350			42795.93217		228.94600		875.00000 
 43692.65567		 305.27265			43387.38302		69.64400		324.00000 
 43692.65567		 896.72350			42795.93217		228.94600		875.00000 
 43692.65567		 305.27265			43387.38302		69.64400		324.00000 
 43692.65567		 896.72350			42795.93217		228.94600		875.00000 
 43692.65567		 305.27265			43387.38302		69.64400		324.00000 
 43692.65567		 896.72350			42795.93217		228.94600		875.00000 
 43692.65567		 305.27265			43387.38302		69.64400		324.00000 
 43692.65567		 896.72350			42795.93217		228.94600		875.00000 
 43692.65567		 305.27265			43387.38302		69.64400		324.00000 
 43692.65567		 896.72350			42795.93217		228.94600		875.00000 
 43692.65567		 305.27265			43387.38302		69.64400		324.00000 
 43692.65567		 896.72350			42795.93217		228.94600		875.00000 
 43692.65567		 305.27265			43387.38302		69.64400		324.00000 
 43692.65567		 896.72350			42795.93217		228.94600		875.00000 
 43692.65567		 305.27265			43387.38302		69.64400		324.00000 
 43692.65567		 896.72350			42795.93217		228.94600		875.00000 
 43692.65567		 305.27265			43387.38302		69.64400		324.00000 
 43692.65567		 896.72350			42795.93217		228.94600		875.00000 
 43692.65567		 305.27265			43387.38302		69.64400		324.00000 
 43692.65567		 896.72350			42795.93217		228.94600		875.00000 
 43692.65567		 305.27265			43387.38302		69.64400		324.00000 
 43692.65567		 896.72350			42795.93217		228.94600		875.00000 
 43692.65567		 305.27265			43387.38302		69.64400		324.00000 
 43692.65567		 896.72350			42795.93217		228.94600		875.00000 
 43692.65567		 305.27265			43387.38302		69.64400		324.00000 
 43692.65567		 896.72350			42795.93217		228.94600		875.00000 
 43692.65567		 305.27265			43387.38302		69.64400		324.00000 
 43692.65567		 896.72350			42795.93217		228.94600		875.00000 
 43692.65567		 305.27265			43387.38302		69.64400		324.00000 
 43692.65567		 896.72350			42795.93217		228.94600		875.00000 
 43692.65567		 305.27265			43387.38302		69.64400		324.00000 
 43692.65567		 896.72350			42795.93217		228.94600		875.00000 
 43692.65567		 305.27265			43387.38302		69.64400		324.00000 
 43692.65567		 896.72350			42795.93217		228.94600		875.00000 
 43692.65567		 305.27265			43387.38302		69.64400		324.00000 
 43692.65567		 896.72350			42795.93217		228.94600		875.00000 
 43692.65567		 305.27265			43387.38302		69.64400		324.00000 
 43692.65567		 896.72350			42795.93217		228.94600		875.00000 
 43692.65567		 305.27265			43387.38302		69.64400		324.00000 
 43692.65567		 896.72350			42795.93217		228.94600		875.00000 
 43692.65567		 305.27265			43387.38302		69.64400		324.00000 
 43692.65567		 896.72350			42795.93217		228.94600		875.00000 
 43692.65567		 305.27265			43387.38302		69.64400		324.00000 
 43692.65567		 896.72350			42795.93217		228.94600		875.00000 
 43692.65567		 305.27265			43387.38302		69.64400		324.00000 
 43692.65567		 896.72350			42795.93217		228.94600		875.00000 
 43692.65567		 305.27265			43387.38302		69.64400		324.00000 
 43692.65567		 896.72350			42795.93217		228.94600		875.00000 
 43692.65567		 305.27265			43387.38302		69.64400		324.00000 
 43692.65567		 896.72350			42795.93217		228.94600		875.00000 
 43692.65567		 305.27265			43387.38302		69.64400		324.00000 
 43692.65567		 896.72350			42795.93217		228.94600		875.00000 
 43692.65567		 305.27265			43387.38302		69.64400		324.00000 
 43692.65567		 896.72350			42795.93217		228.94600		875.00000 
 43692.65567		 305.27265			43387.38302		69.64400		324.00000 
 43692.65567		 896.72350			42795.93217		228.94600		875.00000 
 43692.65567		 305.27265			43387.38302		69.64400		324.00000 
 43692.65567		 896.72350			42795.93217		228.94600		875.00000 
 43692.65567		 305.27265			43387.38302		69.64400		324.00000 
 43692.65567		 896.72350			42795.93217		228.94600		875.00000 
 43692.65567		 305.27265			43387.38302		69.64400		324.00000 
 43692.65567		 896.72350			42795.93217		228.94600		875.00000 
 43692.65567		 305.27265			43387.38302		69.64400		324.00000 
 43692.65567		 896.72350			42795.93217		228.94600		875.00000 
 43692.65567		 305.27265			43387.38302		69.64400		324.00000 
 43692.65567		 896.72350			42795.93217		228.94600		875.00000 
 43692.65567		 305.27265			43387.38302		69.64400		324.00000 
 43692.65567		 896.72350			42795.93217		228.94600		875.00000 
 43692.65567		 305.27265			43387.38302		69.64400		324.00000 
 43692.65567		 896.72350			42795.93217		228.94600		875.00000 
 43692.65567		 305.27265			43387.38302		69.64400		324.00000 
 43692.65567		 896.72350			42795.93217		228.94600		875.00000 
 43692.65567		 305.27265			43387.38302		69.64400		324.00000 
 43692.65567		 896.72350			42795.93217		228.94600		875.00000 
 43692.65567		 305.27265			43387.38302		69.64400		324.00000 
 43692.65567		 896.72350			42795.93217		228.94600		875.00000 
 43692.65567		 305.27265			43387.38302		69.64400		324.00000 
 43692.65567		 896.72350			42795.93217		228.94600		875.00000 
 43692.65567		 305.27265			43387.38302		69.64400		324.00000 
 43692.65567		 896.72350			42795.93217		228.94600		875.00000 
 43692.65567		 305.27265			43387.38302		69.64400		324.00000 
 43692.65567		 896.72350			42795.93217		228.94600		875.00000 
 43692.65567		 305.27265			43387.38302		69.64400		324.00000 
 43692.65567		 896.72350			42795.93217		228.94600		875.00000 
 43692.65567		 305.27265			43387.38302		69.64400		324.00000 
 43692.65567		 896.72350			42795.93217		228.94600		875.00000 
 43692.65567		 305.27265			43387.38302		69.64400		324.00000 
 43692.65567		 896.72350			42795.93217		228.94600		875.00000 
 43692.65567		 305.27265			43387.38302		69.64400		324.00000 
 43692.65567		 896.72350			42795.93217		228.94600		875.00000 
 43692.65567		 305.27265			43387.38302		69.64400		324.00000 
 43692.65567		 896.72350			42795.93217		228.94600		875.00000 
 43692.65567		 305.27265			43387.38302		69.64400		324.00000 
 43692.65567		 896.72350			42795.93217		228.94600		875.00000 
 43692.65567		 305.27265			43387.38302		69.64400		324.00000 
 43692.65567		 896.72350			42795.93217		228.94600		875.00000 
 43692.65567		 305.27265			43387.38302		69.64400		324.00000 
 43692.65567		 896.72350			42795.93217		228.94600		875.00000 
 43692.65567		 305.27265			43387.38302		69.64400		324.00000 
 43692.65567		 896.72350			42795.93217		228.94600		875.00000 
 43692.65567		 305.27265			43387.38302		69.64400		324.00000 
 43692.65567		 896.72350			42795.93217		228.94600		875.00000 
 43692.65567		 305.27265			43387.38302		69.64400		324.00000 
 43692.65567		 896.72350			42795.93217		228.94600		875.00000 
 43692.65567		 305.27265			43387.38302		69.64400		324.00000 
 43692.65567		 896.72350			42795.93217		228.94600		875.00000 
 43692.65567		 305.27265			43387.38302		69.64400		324.00000 
 43692.65567		 896.72350			42795.93217		228.94600		875.00000 
 43692.65567		 305.27265			43387.38302		69.64400		324.00000 
 43692.65567		 896.72350			42795.93217		228.94600		875.00000 
 43692.65567		 305.27265			43387.38302		69.64400		324.00000 
 43692.65567		 896.72350			42795.93217		228.94600		875.00000 
 43692.65567		 305.27265			43387.38302		69.64400		324.00000 
 43692.65567		 896.72350			42795.93217		228.94600		875.00000 
 43692.65567		 305.27265			43387.38302		69.64400		324.00000 
 43692.65567		 896.72350			42795.93217		228.94600		875.00000 
 43692.65567		 305.27265			43387.38302		69.64400		324.00000 
 43692.65567		 896.72350			42795.93217		228.94600		875.00000 
 43692.65567		 305.27265			43387.38302		69.64400		324.00000 
 43692.65567		 896.72350			42795.93217		228.94600		875.00000 
 43692.65567		 305.27265			43387.38302		69.64400		324.00000 
 43692.65567		 896.72350			42795.93217		228.94600		875.00000 
 43692.65567		 305.27265			43387.38302		69.64400		324.00000 
 43692.65567		 896.72350			42795.93217		228.94600		875.00000 
 43692.65567		 305.27265			43387.38302		69.64400		324.00000 
 43692.65567		 896.72350			42795.93217		228.94600		875.00000 
 43692.65567		 305.27265			43387.38302		69.64400		324.00000 
 43692.65567		 896.72350			42795.93217		228.94600		875.00000 
 43692.65567		 305.27265			43387.38302		69.64400		324.00000 
 43692.65567		 896.72350			42795.93217		228.94600		875.00000 
 43692.65567		 305.27265			43387.38302		69.64400		324.00000 
 43692.65567		 896.72350			42795.93217		228.94600		875.00000 
 43692.65567		 305.27265			43387.38302		69.64400		324.00000 
 43692.65567		 896.72350			42795.93217		228.94600		875.00000 
 43692.65567		 305.27265			43387.38302		69.64400		324.00000 
 43692.65567		 896.72350			42795.93217		228.94600		875.00000 
 43692.65567		 305.27265			43387.38302		69.64400		324.00000 
 43692.65567		 896.72350			42795.93217		228.94600		875.00000 
 43692.65567		 305.27265			43387.38302		69.64400		324.00000 
 43692.65567		 896.72350			42795.93217		228.94600		875.00000 
 43692.65567		 305.27265			43387.38302		69.64400		324.00000 
 43692.65567		 896.72350			42795.93217		228.94600		875.00000 
 43692.65567		 305.27265			43387.38302		69.64400		324.00000 
 43692.65567		 896.72350			42795.93217		228.94600		875.00000 
 43692.65567		 305.27265			43387.38302		69.64400		324.00000 
 43692.65567		 896.72350			42795.93217		228.94600		875.00000 
 43692.65567		 305.27265			43387.38302		69.64400		324.00000 
 43692.65567		 896.72350			42795.93217		228.94600		875.00000 
 43692.65567		 305.27265			43387.38302		69.64400		324.00000 
 43692.65567		 896.72350			42795.93217		228.94600		875.00000 
 43692.65567		 305.27265			43387.38302		69.64400		324.00000 
 43692.65567		 896.72350			42795.93217		228.94600		875.00000 
 43692.65567		 305.27265			43387.38302		69.64400		324.00000 
 43692.65567		 896.72350			42795.93217		228.94600		875.00000 
 43692.65567		 305.27265			43387.38302		69.64400		324.00000 
 43692.65567		 896.72350			42795.93217		228.94600		875.00000 
 43692.65567		 305.27265			43387.38302		69.64400		324.00000 
 43692.65567		 896.72350			42795.93217		228.94600		875.00000 
 43692.65567		 305.27265			43387.38302		69.64400		324.00000 
 43692.65567		 896.72350			42795.93217		228.94600		875.00000 
 43692.65567		 305.27265			43387.38302		69.64400		324.00000 
 43692.65567		 896.72350			42795.93217		228.94600		875.00000 
 43692.65567		 305.27265			43387.38302		69.64400		324.00000 
 43692.65567		 896.72350			42795.93217		228.94600		875.00000 
 43692.65567		 305.27265			43387.38302		69.64400		324.00000 
 43692.65567		 896.72350			42795.93217		228.94600		875.00000 
 43692.65567		 305.27265			43387.38302		69.64400		324.00000 
 43692.65567		 896.72350			42795.93217		228.94600		875.00000 
 43692.65567		 305.27265			43387.38302		69.64400		324.00000 
 43692.65567		 896.72350			42795.93217		228.94600		875.00000 
 43692.65567		 305.27265			43387.38302		69.64400		324.00000 
 43692.65567		 896.72350			42795.93217		228.94600		875.00000 
 43692.65567		 305.27265			43387.38302		69.64400		324.00000 
 43692.65567		 896.72350			42795.93217		228.94600		875.00000 
 43692.65567		 305.27265			43387.38302		69.64400		324.00000 
 43692.65567		 896.72350			42795.93217		228.94600		875.00000 
 43692.65567		 305.27265			43387.38302		69.64400		324.00000 
 43692.65567		 896.72350			42795.93217		228.94600		875.00000 
 43692.65567		 305.27265			43387.38302		69.64400		324.00000 
 43692.65567		 896.72350			42795.93217		228.94600		875.00000 
 43692.65567		 305.27265			43387.38302		69.64400		324.00000 
 43692.65567		 896.72350			42795.93217		228.94600		875.00000 
 43692.65567		 305.27265			43387.38302		69.64400		324.00000 
 43692.65567		 896.72350			42795.93217		228.94600		875.00000 
 43692.65567		 305.27265			43387.38302		69.64400		324.00000 
 43692.65567		 896.72350			42795.93217		228.94600		875.00000 
 43692.65567		 305.27265			43387.38302		69.64400		324.00000 
 43692.65567		 896.72350			42795.93217		228.94600		875.00000 
 43692.65567		 305.27265			43387.38302		69.64400		324.00000 
 43692.65567		 896.72350			42795.93217		228.94600		875.00000 
 43692.65567		 305.27265			43387.38302		69.64400		324.00000 
 43692.65567		 896.72350			42795.93217		228.94600		875.00000 
 43692.65567		 305.27265			43387.38302		69.64400		324.00000 
 43692.65567		 896.72350			42795.93217		228.94600		875.00000 
 43692.65567		 305.27265			43387.38302		69.64400		324.00000 
 43692.65567		 896.72350			42795.93217		228.94600		875.00000 
 43692.65567		 305.27265			43387.38302		69.64400		324.00000 
 43692.65567		 896.72350			42795.93217		228.94600		875.00000 
 43692.65567		 305.27265			43387.38302		69.64400		324.00000 
 43692.65567		 896.72350			42795.93217		228.94600		875.00000 
 43692.65567		 305.27265			43387.38302		69.64400		324.00000 
 43692.65567		 896.72350			42795.93217		228.94600		875.00000 
 43692.65567		 305.27265			43387.38302		69.64400		324.00000 
 43692.65567		 896.72350			42795.93217		228.94600		875.00000 
 43692.65567		 305.27265			43387.38302		69.64400		324.00000 
 43692.65567		 896.72350			42795.93217		228.94600		875.00000 
 43692.65567		 305.27265			43387.38302		69.64400		324.00000 
 43692.65567		 896.72350			42795.93217		228.94600		875.00000 
 43692.65567		 305.27265			43387.38302		69.64400		324.00000 
 43692.65567		 896.72350			42795.93217		228.94600		875.00000 
 43692.65567		 305.27265			43387.38302		69.64400		324.00000 
 43692.65567		 896.72350			42795.93217		228.94600		875.00000 
 43692.65567		 305.27265			43387.38302		69.64400		324.00000 
 43692.65567		 896.72350			42795.93217		228.94600		875.00000 
 43692.65567		 305.27265			43387.38302		69.64400		324.00000 
 43692.65567		 896.72350			42795.93217		229.54400		875.00000 
 43692.65567		 305.27265			43387.38302		69.64400		324.00000 
 43692.65567		 896.72350			42795.93217		229.54400		875.00000 
 43692.65567		 305.27265			43387.38302		69.64400		324.00000 
 43692.65567		 896.72350			42795.93217		229.54400		875.00000 
 43692.65567		 305.27265			43387.38302		69.64400		324.00000 
 43692.65567		 896.72350			42795.93217		229.54400		875.00000 
 43692.65567		 305.27265			43387.38302		69.64400		324.00000 
 43692.65567		 896.72350			42795.93217		229.54400		875.00000 
 43692.65567		 305.27265			43387.38302		69.64400		324.00000 
 43692.65567		 896.72350			42795.93217		229.54400		875.00000 
 43692.65567		 305.27265			43387.38302		69.64400		324.00000 
 43692.65567		 896.72350			42795.93217		229.54400		875.00000 
 43692.65567		 305.27265			43387.38302		69.64400		324.00000 
 43692.65567		 896.72350			42795.93217		229.54400		875.00000 
 43692.65567		 305.27265			43387.38302		69.64400		324.00000 
 43692.65567		 896.72350			42795.93217		229.54400		875.00000 
 43692.65567		 305.27265			43387.38302		69.64400		324.00000 
 43692.65567		 896.72350			42795.93217		229.54400		875.00000 
 43692.65567		 305.27265			43387.38302		69.64400		324.00000 
 43692.65567		 896.72350			42795.93217		229.54400		875.00000 
 43692.65567		 305.27265			43387.38302		69.64400		324.00000 
 43692.65567		 896.72350			42795.93217		229.54400		875.00000 
 43692.65567		 305.27265			43387.38302		69.64400		324.00000 
 43692.65567		 896.72350			42795.93217		229.54400		875.00000 
 43692.65567		 305.27265			43387.38302		69.64400		324.00000 
 43692.65567		 896.72350			42795.93217		229.54400		875.00000 
 43692.65567		 305.27265			43387.38302		69.64400		324.00000 
 43692.65567		 896.72350			42795.93217		229.54400		875.00000 
 43692.65567		 305.27265			43387.38302		69.64400		324.00000 
 43692.65567		 896.72350			42795.93217		229.54400		875.00000 
 43692.65567		 305.27265			43387.38302		69.64400		324.00000 
 43692.65567		 896.72350			42795.93217		229.54400		875.00000 
 43692.65567		 305.27265			43387.38302		69.64400		324.00000 
 43692.65567		 896.72350			42795.93217		229.54400		875.00000 
 43692.65567		 305.27265			43387.38302		69.64400		324.00000 
 43692.65567		 896.72350			42795.93217		229.54400		875.00000 
 43692.65567		 305.27265			43387.38302		69.64400		324.00000 
 43692.65567		 896.72350			42795.93217		229.54400		875.00000 
 43692.65567		 305.27265			43387.38302		69.64400		324.00000 
 43692.65567		 896.72350			42795.93217		229.54400		875.00000 
 43692.65567		 305.27265			43387.38302		69.64400		324.00000 
 43692.65567		 896.72350			42795.93217		229.54400		875.00000 
 43692.65567		 305.27265			43387.38302		69.64400		324.00000 
 43692.65567		 896.72350			42795.93217		229.54400		875.00000 
 43692.65567		 305.27265			43387.38302		69.64400		324.00000 
 43692.65567		 896.72350			42795.93217		229.54400		875.00000 
 43692.65567		 305.27265			43387.38302		69.64400		324.00000 
 43692.65567		 896.72350			42795.93217		229.54400		875.00000 
 43692.65567		 305.27265			43387.38302		69.64400		324.00000 
 43692.65567		 896.72350			42795.93217		229.54400		875.00000 
 43692.65567		 305.27265			43387.38302		69.64400		324.00000 
 43692.65567		 896.72350			42795.93217		229.54400		875.00000 
 43692.65567		 305.27265			43387.38302		69.64400		324.00000 
 43692.65567		 896.72350			42795.93217		229.54400		875.00000 
 43692.65567		 305.27265			43387.38302		69.64400		324.00000 
 43692.65567		 896.72350			42795.93217		229.54400		875.00000 
 43692.65567		 305.27265			43387.38302		69.64400		324.00000 
 43692.65567		 896.72350			42795.93217		229.54400		875.00000 
 43692.65567		 305.27265			43387.38302		69.64400		324.00000 
 43692.65567		 896.72350			42795.93217		229.54400		875.00000 
 43692.65567		 305.27265			43387.38302		69.64400		324.00000 
 43692.65567		 896.72350			42795.93217		229.54400		875.00000 
 43692.65567		 305.27265			43387.38302		69.64400		324.00000 
 43692.65567		 896.72350			42795.93217		229.54400		875.00000 
 43692.65567		 305.27265			43387.38302		69.64400		324.00000 
 43692.65567		 896.72350			42795.93217		229.54400		875.00000 
 43692.65567		 305.27265			43387.38302		69.64400		324.00000 
 43692.65567		 896.72350			42795.93217		229.54400		875.00000 
 43692.65567		 305.27265			43387.38302		69.64400		324.00000 
 43692.65567		 896.72350			42795.93217		229.54400		875.00000 
 43692.65567		 305.27265			43387.38302		69.64400		324.00000 
 43692.65567		 896.72350			42795.93217		229.54400		875.00000 
 43692.65567		 305.27265			43387.38302		69.64400		324.00000 
 43692.65567		 896.72350			42795.93217		229.54400		875.00000 
 43692.65567		 305.27265			43387.38302		69.64400		324.00000 
 43692.65567		 896.72350			42795.93217		229.54400		875.00000 
 43692.65567		 305.27265			43387.38302		69.64400		324.00000 
 43692.65567		 896.72350			42795.93217		229.54400		875.00000 
 43692.65567		 305.27265			43387.38302		69.64400		324.00000 
 43692.65567		 896.72350			42795.93217		229.54400		875.00000 
 43692.65567		 305.27265			43387.38302		69.64400		324.00000 
 43692.65567		 896.72350			42795.93217		229.54400		875.00000 
 43692.65567		 305.27265			43387.38302		69.64400		324.00000 
 43692.65567		 896.72350			42795.93217		229.54400		875.00000 
 43692.65567		 305.27265			43387.38302		69.64400		324.00000 
 43692.65567		 896.72350			42795.93217		229.54400		875.00000 
 43692.65567		 305.27265			43387.38302		69.64400		324.00000 
 43692.65567		 896.72350			42795.93217		229.54400		875.00000 
 43692.65567		 305.27265			43387.38302		69.64400		324.00000 
 43692.65567		 896.72350			42795.93217		229.54400		875.00000 
 43692.65567		 305.27265			43387.38302		69.64400		324.00000 
 43692.65567		 896.72350			42795.93217		229.54400		875.00000 
 43692.65567		 305.27265			43387.38302		69.64400		324.00000 
 43692.65567		 896.72350			42795.93217		229.54400		875.00000 
 43692.65567		 305.27265			43387.38302		69.64400		324.00000 
 43692.65567		 896.72350			42795.93217		229.54400		875.00000 
 43692.65567		 305.27265			43387.38302		69.64400		324.00000 
 43692.65567		 896.72350			42795.93217		229.54400		875.00000 
 43692.65567		 305.27265			43387.38302		69.64400		324.00000 
 43692.65567		 896.72350			42795.93217		229.54400		875.00000 
 43692.65567		 305.27265			43387.38302		69.64400		324.00000 
 43692.65567		 896.72350			42795.93217		229.54400		875.00000 
 43692.65567		 305.27265			43387.38302		69.64400		324.00000 
 43692.65567		 896.72350			42795.93217		229.54400		875.00000 
 43692.65567		 305.27265			43387.38302		69.64400		324.00000 
 43692.65567		 896.72350			42795.93217		229.54400		875.00000 
 43692.65567		 305.27265			43387.38302		69.64400		324.00000 
 43692.65567		 896.72350			42795.93217		229.54400		875.00000 
 43692.65567		 305.27265			43387.38302		69.64400		324.00000 
 43692.65567		 896.72350			42795.93217		229.54400		875.00000 
 43692.65567		 305.27265			43387.38302		69.64400		324.00000 
 43692.65567		 896.72350			42795.93217		229.54400		875.00000 
 43692.65567		 305.27265			43387.38302		69.64400		324.00000 
 43692.65567		 896.72350			42795.93217		229.54400		875.00000 
 43692.65567		 305.27265			43387.38302		69.64400		324.00000 
 43692.65567		 896.72350			42795.93217		229.54400		875.00000 
 43692.65567		 305.27265			43387.38302		69.64400		324.00000 
 43692.65567		 896.72350			42795.93217		229.54400		875.00000 
 43692.65567		 305.27265			43387.38302		69.64400		324.00000 
 43692.65567		 896.72350			42795.93217		229.54400		875.00000 
 43692.65567		 305.27265			43387.38302		69.64400		324.00000 
 43692.65567		 776.90577			42915.74990		229.54400		875.00000 
 43692.65567		 305.27265			43387.38302		69.64400		324.00000 
 43692.65567		 657.08805			43035.56762		225.58400		875.00000 
 43692.65567		 305.27265			43387.38302		69.64400		324.00000 
 43692.65567		 657.08805			43035.56762		225.58400		875.00000 
 43692.65567		 305.27265			43387.38302		69.64400		324.00000 
 43692.65567		 537.27032			43155.38535		225.58400		875.00000 
 43692.65567		 305.27265			43387.38302		69.64400		324.00000 
 43692.65567		 537.27032			43155.38535		225.58400		875.00000 
 43692.65567		 305.27265			43387.38302		69.64400		324.00000 
 43692.65567		 537.27032			43155.38535		225.58400		875.00000 
 43692.65567		 305.27265			43387.38302		69.64400		324.00000 
 43692.65567		 537.27032			43155.38535		225.58400		875.00000 
 43692.65567		 305.27265			43387.38302		69.64400		324.00000 
 43692.65567		 537.27032			43155.38535		225.58400		875.00000 
 43692.65567		 305.27265			43387.38302		69.64400		324.00000 
 43692.65567		 537.27032			43155.38535		225.58400		875.00000 
 43692.65567		 305.27265			43387.38302		69.64400		324.00000 
 43692.65567		 537.27032			43155.38535		225.58400		875.00000 
 43692.65567		 305.27265			43387.38302		69.64400		324.00000 
 43692.65567		 537.27032			43155.38535		225.58400		875.00000 
 43692.65567		 305.27265			43387.38302		69.64400		324.00000 
 43692.65567		 537.27032			43155.38535		225.58400		875.00000 
 43692.65567		 305.27265			43387.38302		69.64400		324.00000 
 43692.65567		 537.27032			43155.38535		225.58400		875.00000 
 43692.65567		 305.27265			43387.38302		69.64400		324.00000 
 43692.65567		 537.27032			43155.38535		225.58400		875.00000 
 43692.65567		 305.27265			43387.38302		69.64400		324.00000 
 43692.65567		 537.27032			43155.38535		225.58400		875.00000 
 43692.65567		 305.27265			43387.38302		69.64400		324.00000 
 43692.65567		 537.27032			43155.38535		225.58400		875.00000 
 43692.65567		 305.27265			43387.38302		69.64400		324.00000 
 43692.65567		 537.27032			43155.38535		225.58400		875.00000 
 43692.65567		 305.27265			43387.38302		69.64400		324.00000 
 43692.65567		 537.27032			43155.38535		225.58400		875.00000 
 43692.65567		 305.27265			43387.38302		69.64400		324.00000 
 43692.65567		 537.27032			43155.38535		225.58400		875.00000 
 43692.65567		 305.27265			43387.38302		69.64400		324.00000 
 43692.65567		 537.27032			43155.38535		225.58400		875.00000 
 43692.65567		 305.27265			43387.38302		69.64400		324.00000 
 43692.65567		 537.27032			43155.38535		225.58400		875.00000 
 43692.65567		 305.27265			43387.38302		69.64400		324.00000 
 43692.65567		 537.27032			43155.38535		225.58400		875.00000 
 43692.65567		 305.27265			43387.38302		69.64400		324.00000 
 43692.65567		 537.27032			43155.38535		225.58400		875.00000 
 43692.65567		 305.27265			43387.38302		69.64400		324.00000 
 43692.65567		 537.27032			43155.38535		225.58400		875.00000 
 43692.65567		 305.27265			43387.38302		69.64400		324.00000 
 43692.65567		 529.63254			43163.02313		225.58400		875.00000 
 43692.65567		 305.27265			43387.38302		69.64400		324.00000 
 43692.65567		 525.81365			43166.84203		225.58400		875.00000 
 43692.65567		 305.27265			43387.38302		69.64400		324.00000 
 43692.65567		 525.81365			43166.84203		225.58400		875.00000 
 43692.65567		 261.35540			43431.30027		69.64400		324.00000 
 43692.65567		 261.35540			43431.30027		225.58400		875.00000 
 43692.65567		 261.35540			43431.30027		69.64400		324.00000 
