Memory Total (MiB) 	 Memory Used (MiB) 	    Memory Free (MiB) 	 Power Drawed (W) 	 Clocks (Mhz) 	 
 43692.65567		 261.35540			43431.30027		221.70000		875.00000 
 43692.65567		 261.35540			43431.30027		68.12000		324.00000 
 43692.65567		 261.35540			43431.30027		221.70000		875.00000 
 43692.65567		 261.35540			43431.30027		68.12000		324.00000 
 43692.65567		 261.35540			43431.30027		221.70000		875.00000 
 43692.65567		 261.35540			43431.30027		68.12000		324.00000 
 43692.65567		 261.35540			43431.30027		221.70000		875.00000 
 43692.65567		 261.35540			43431.30027		68.12000		324.00000 
 43692.65567		 261.35540			43431.30027		221.70000		875.00000 
 43692.65567		 261.35540			43431.30027		68.12000		324.00000 
 43692.65567		 261.35540			43431.30027		166.38400		875.00000 
 43692.65567		 261.35540			43431.30027		68.12000		324.00000 
 43692.65567		 261.35540			43431.30027		166.38400		875.00000 
 43692.65567		 261.35540			43431.30027		68.12000		324.00000 
 43692.65567		 261.35540			43431.30027		166.38400		875.00000 
 43692.65567		 261.35540			43431.30027		68.12000		324.00000 
 43692.65567		 261.35540			43431.30027		166.38400		875.00000 
 43692.65567		 261.35540			43431.30027		68.12000		324.00000 
 43692.65567		 261.35540			43431.30027		166.38400		875.00000 
 43692.65567		 261.35540			43431.30027		68.12000		324.00000 
 43692.65567		 261.35540			43431.30027		166.38400		875.00000 
 43692.65567		 261.35540			43431.30027		68.12000		324.00000 
 43692.65567		 261.35540			43431.30027		166.38400		875.00000 
 43692.65567		 261.35540			43431.30027		68.12000		324.00000 
 43692.65567		 261.35540			43431.30027		166.38400		875.00000 
 43692.65567		 261.35540			43431.30027		68.12000		324.00000 
 43692.65567		 261.35540			43431.30027		166.38400		875.00000 
 43692.65567		 261.35540			43431.30027		68.12000		324.00000 
 43692.65567		 261.35540			43431.30027		166.38400		875.00000 
 43692.65567		 261.35540			43431.30027		68.12000		324.00000 
 43692.65567		 261.35540			43431.30027		166.38400		875.00000 
 43692.65567		 261.35540			43431.30027		68.12000		324.00000 
 43692.65567		 261.35540			43431.30027		166.38400		875.00000 
 43692.65567		 261.35540			43431.30027		68.12000		324.00000 
 43692.65567		 261.35540			43431.30027		166.38400		875.00000 
 43692.65567		 261.35540			43431.30027		68.12000		324.00000 
 43692.65567		 265.17429			43427.48138		166.38400		875.00000 
 43692.65567		 261.35540			43431.30027		68.12000		324.00000 
 43692.65567		 272.81207			43419.84360		166.38400		875.00000 
 43692.65567		 261.35540			43431.30027		68.12000		324.00000 
 43692.65567		 272.81207			43419.84360		166.38400		875.00000 
 43692.65567		 261.35540			43431.30027		68.12000		324.00000 
 43692.65567		 272.81207			43419.84360		166.38400		875.00000 
 43692.65567		 265.17429			43427.48138		68.12000		324.00000 
 43692.65567		 272.81207			43419.84360		166.38400		875.00000 
 43692.65567		 265.17429			43427.48138		68.12000		324.00000 
 43692.65567		 272.81207			43419.84360		166.38400		875.00000 
 43692.65567		 265.17429			43427.48138		68.12000		324.00000 
 43692.65567		 272.81207			43419.84360		166.38400		875.00000 
 43692.65567		 272.81207			43419.84360		68.12000		324.00000 
 43692.65567		 272.81207			43419.84360		166.38400		875.00000 
 43692.65567		 272.81207			43419.84360		68.12000		324.00000 
 43692.65567		 272.81207			43419.84360		166.38400		875.00000 
 43692.65567		 272.81207			43419.84360		68.12000		324.00000 
 43692.65567		 305.27265			43387.38302		166.38400		875.00000 
 43692.65567		 305.27265			43387.38302		68.12000		324.00000 
 43692.65567		 305.27265			43387.38302		166.38400		875.00000 
 43692.65567		 305.27265			43387.38302		68.12000		324.00000 
 43692.65567		 305.27265			43387.38302		166.38400		875.00000 
 43692.65567		 305.27265			43387.38302		68.12000		324.00000 
 43692.65567		 305.27265			43387.38302		166.38400		875.00000 
 43692.65567		 305.27265			43387.38302		68.12000		324.00000 
 43692.65567		 305.27265			43387.38302		166.38400		875.00000 
 43692.65567		 305.27265			43387.38302		68.12000		324.00000 
 43692.65567		 309.56891			43383.08677		166.38400		875.00000 
 43692.65567		 305.27265			43387.38302		68.12000		324.00000 
 43692.65567		 311.00099			43381.65468		166.38400		875.00000 
 43692.65567		 305.27265			43387.38302		68.12000		324.00000 
 43692.65567		 311.00099			43381.65468		166.38400		875.00000 
 43692.65567		 305.27265			43387.38302		68.12000		324.00000 
 43692.65567		 311.00099			43381.65468		166.38400		875.00000 
 43692.65567		 305.27265			43387.38302		68.12000		324.00000 
 43692.65567		 311.00099			43381.65468		166.38400		875.00000 
 43692.65567		 305.27265			43387.38302		68.12000		324.00000 
 43692.65567		 311.00099			43381.65468		166.38400		875.00000 
 43692.65567		 305.27265			43387.38302		68.12000		324.00000 
 43692.65567		 311.00099			43381.65468		144.14400		875.00000 
 43692.65567		 305.27265			43387.38302		68.12000		324.00000 
 43692.65567		 311.00099			43381.65468		144.14400		875.00000 
 43692.65567		 305.27265			43387.38302		68.12000		324.00000 
 43692.65567		 311.00099			43381.65468		144.14400		875.00000 
 43692.65567		 305.27265			43387.38302		68.12000		324.00000 
 43692.65567		 311.00099			43381.65468		144.14400		875.00000 
 43692.65567		 305.27265			43387.38302		68.12000		324.00000 
 43692.65567		 311.00099			43381.65468		144.14400		875.00000 
 43692.65567		 305.27265			43387.38302		68.12000		324.00000 
 43692.65567		 311.00099			43381.65468		144.14400		875.00000 
 43692.65567		 305.27265			43387.38302		68.12000		324.00000 
 43692.65567		 311.00099			43381.65468		144.14400		875.00000 
 43692.65567		 305.27265			43387.38302		68.12000		324.00000 
 43692.65567		 311.00099			43381.65468		144.14400		875.00000 
 43692.65567		 305.27265			43387.38302		68.12000		324.00000 
 43692.65567		 311.00099			43381.65468		144.14400		875.00000 
 43692.65567		 305.27265			43387.38302		68.12000		324.00000 
 43692.65567		 311.00099			43381.65468		144.14400		875.00000 
 43692.65567		 305.27265			43387.38302		68.12000		324.00000 
 43692.65567		 311.00099			43381.65468		144.14400		875.00000 
 43692.65567		 305.27265			43387.38302		68.12000		324.00000 
 43692.65567		 311.00099			43381.65468		144.14400		875.00000 
 43692.65567		 305.27265			43387.38302		68.12000		324.00000 
 43692.65567		 311.00099			43381.65468		144.14400		875.00000 
 43692.65567		 305.27265			43387.38302		68.12000		324.00000 
 43692.65567		 311.00099			43381.65468		144.14400		875.00000 
 43692.65567		 305.27265			43387.38302		68.12000		324.00000 
 43692.65567		 311.00099			43381.65468		144.14400		875.00000 
 43692.65567		 305.27265			43387.38302		68.12000		324.00000 
 43692.65567		 311.00099			43381.65468		144.14400		875.00000 
 43692.65567		 305.27265			43387.38302		68.12000		324.00000 
 43692.65567		 311.00099			43381.65468		144.14400		875.00000 
 43692.65567		 305.27265			43387.38302		68.12000		324.00000 
 43692.65567		 311.00099			43381.65468		144.14400		875.00000 
 43692.65567		 305.27265			43387.38302		68.12000		324.00000 
 43692.65567		 311.00099			43381.65468		144.14400		875.00000 
 43692.65567		 305.27265			43387.38302		68.12000		324.00000 
 43692.65567		 311.00099			43381.65468		144.14400		875.00000 
 43692.65567		 305.27265			43387.38302		68.12000		324.00000 
 43692.65567		 311.00099			43381.65468		144.14400		875.00000 
 43692.65567		 305.27265			43387.38302		68.12000		324.00000 
 43692.65567		 311.00099			43381.65468		144.14400		875.00000 
 43692.65567		 305.27265			43387.38302		68.12000		324.00000 
 43692.65567		 311.00099			43381.65468		144.14400		875.00000 
 43692.65567		 305.27265			43387.38302		68.12000		324.00000 
 43692.65567		 311.00099			43381.65468		144.14400		875.00000 
 43692.65567		 305.27265			43387.38302		68.12000		324.00000 
 43692.65567		 311.00099			43381.65468		144.14400		875.00000 
 43692.65567		 305.27265			43387.38302		68.12000		324.00000 
 43692.65567		 311.00099			43381.65468		144.14400		875.00000 
 43692.65567		 305.27265			43387.38302		68.12000		324.00000 
 43692.65567		 311.00099			43381.65468		144.14400		875.00000 
 43692.65567		 305.27265			43387.38302		68.12000		324.00000 
 43692.65567		 311.00099			43381.65468		144.14400		875.00000 
 43692.65567		 305.27265			43387.38302		68.12000		324.00000 
 43692.65567		 311.00099			43381.65468		144.14400		875.00000 
 43692.65567		 305.27265			43387.38302		68.12000		324.00000 
 43692.65567		 311.00099			43381.65468		144.14400		875.00000 
 43692.65567		 305.27265			43387.38302		68.12000		324.00000 
 43692.65567		 311.00099			43381.65468		144.14400		875.00000 
 43692.65567		 305.27265			43387.38302		68.12000		324.00000 
 43692.65567		 311.00099			43381.65468		135.94000		875.00000 
 43692.65567		 305.27265			43387.38302		68.12000		324.00000 
 43692.65567		 311.00099			43381.65468		135.94000		875.00000 
 43692.65567		 305.27265			43387.38302		68.12000		324.00000 
 43692.65567		 311.00099			43381.65468		135.94000		875.00000 
 43692.65567		 305.27265			43387.38302		68.12000		324.00000 
 43692.65567		 311.00099			43381.65468		135.94000		875.00000 
 43692.65567		 305.27265			43387.38302		68.12000		324.00000 
 43692.65567		 311.00099			43381.65468		135.94000		875.00000 
 43692.65567		 305.27265			43387.38302		68.12000		324.00000 
 43692.65567		 311.00099			43381.65468		135.94000		875.00000 
 43692.65567		 305.27265			43387.38302		68.12000		324.00000 
 43692.65567		 311.00099			43381.65468		135.94000		875.00000 
 43692.65567		 305.27265			43387.38302		68.12000		324.00000 
 43692.65567		 311.00099			43381.65468		135.94000		875.00000 
 43692.65567		 305.27265			43387.38302		68.12000		324.00000 
 43692.65567		 311.00099			43381.65468		135.94000		875.00000 
 43692.65567		 305.27265			43387.38302		68.12000		324.00000 
 43692.65567		 311.00099			43381.65468		135.94000		875.00000 
 43692.65567		 305.27265			43387.38302		68.12000		324.00000 
 43692.65567		 311.00099			43381.65468		135.94000		875.00000 
 43692.65567		 305.27265			43387.38302		68.12000		324.00000 
 43692.65567		 311.00099			43381.65468		135.94000		875.00000 
 43692.65567		 305.27265			43387.38302		68.12000		324.00000 
 43692.65567		 311.00099			43381.65468		135.94000		875.00000 
 43692.65567		 305.27265			43387.38302		68.12000		324.00000 
 43692.65567		 311.00099			43381.65468		135.94000		875.00000 
 43692.65567		 305.27265			43387.38302		68.12000		324.00000 
 43692.65567		 311.00099			43381.65468		135.94000		875.00000 
 43692.65567		 305.27265			43387.38302		68.12000		324.00000 
 43692.65567		 311.00099			43381.65468		135.94000		875.00000 
 43692.65567		 305.27265			43387.38302		68.12000		324.00000 
 43692.65567		 314.81988			43377.83579		135.94000		875.00000 
 43692.65567		 305.27265			43387.38302		68.12000		324.00000 
 43692.65567		 314.81988			43377.83579		135.94000		875.00000 
 43692.65567		 305.27265			43387.38302		68.12000		324.00000 
 43692.65567		 314.81988			43377.83579		135.94000		875.00000 
 43692.65567		 305.27265			43387.38302		68.12000		324.00000 
 43692.65567		 318.63877			43374.01690		135.94000		875.00000 
 43692.65567		 305.27265			43387.38302		68.12000		324.00000 
 43692.65567		 322.45767			43370.19801		135.94000		875.00000 
 43692.65567		 305.27265			43387.38302		68.12000		324.00000 
 43692.65567		 326.27656			43366.37912		135.94000		875.00000 
 43692.65567		 305.27265			43387.38302		68.12000		324.00000 
 43692.65567		 326.27656			43366.37912		135.94000		875.00000 
 43692.65567		 305.27265			43387.38302		68.12000		324.00000 
 43692.65567		 326.27656			43366.37912		135.94000		875.00000 
 43692.65567		 305.27265			43387.38302		68.12000		324.00000 
 43692.65567		 537.27032			43155.38535		135.94000		875.00000 
 43692.65567		 305.27265			43387.38302		68.12000		324.00000 
 43692.65567		 576.41396			43116.24171		135.94000		875.00000 
 43692.65567		 305.27265			43387.38302		68.12000		324.00000 
 43692.65567		 654.70124			43037.95443		135.94000		875.00000 
 43692.65567		 305.27265			43387.38302		68.12000		324.00000 
 43692.65567		 654.70124			43037.95443		135.94000		875.00000 
 43692.65567		 305.27265			43387.38302		68.12000		324.00000 
 43692.65567		 654.70124			43037.95443		135.94000		875.00000 
 43692.65567		 305.27265			43387.38302		68.12000		324.00000 
 43692.65567		 654.70124			43037.95443		135.94000		875.00000 
 43692.65567		 305.27265			43387.38302		68.12000		324.00000 
 43692.65567		 654.70124			43037.95443		135.94000		875.00000 
 43692.65567		 305.27265			43387.38302		68.12000		324.00000 
 43692.65567		 654.70124			43037.95443		135.94000		875.00000 
 43692.65567		 305.27265			43387.38302		68.12000		324.00000 
 43692.65567		 654.70124			43037.95443		135.94000		875.00000 
 43692.65567		 305.27265			43387.38302		68.12000		324.00000 
 43692.65567		 654.70124			43037.95443		135.94000		875.00000 
 43692.65567		 305.27265			43387.38302		68.12000		324.00000 
 43692.65567		 654.70124			43037.95443		135.94000		875.00000 
 43692.65567		 305.27265			43387.38302		68.12000		324.00000 
 43692.65567		 654.70124			43037.95443		135.94000		875.00000 
 43692.65567		 305.27265			43387.38302		68.12000		324.00000 
 43692.65567		 654.70124			43037.95443		135.94000		875.00000 
 43692.65567		 305.27265			43387.38302		68.12000		324.00000 
 43692.65567		 654.70124			43037.95443		135.94000		875.00000 
 43692.65567		 305.27265			43387.38302		68.12000		324.00000 
 43692.65567		 654.70124			43037.95443		135.94000		875.00000 
 43692.65567		 305.27265			43387.38302		68.12000		324.00000 
 43692.65567		 654.70124			43037.95443		135.94000		875.00000 
 43692.65567		 305.27265			43387.38302		68.12000		324.00000 
 43692.65567		 654.70124			43037.95443		135.94000		875.00000 
 43692.65567		 305.27265			43387.38302		68.12000		324.00000 
 43692.65567		 654.70124			43037.95443		135.94000		875.00000 
 43692.65567		 305.27265			43387.38302		68.12000		324.00000 
 43692.65567		 654.70124			43037.95443		135.94000		875.00000 
 43692.65567		 305.27265			43387.38302		68.12000		324.00000 
 43692.65567		 654.70124			43037.95443		135.94000		875.00000 
 43692.65567		 305.27265			43387.38302		68.12000		324.00000 
 43692.65567		 654.70124			43037.95443		154.43400		875.00000 
 43692.65567		 305.27265			43387.38302		68.12000		324.00000 
 43692.65567		 654.70124			43037.95443		154.43400		875.00000 
 43692.65567		 305.27265			43387.38302		68.12000		324.00000 
 43692.65567		 654.70124			43037.95443		154.43400		875.00000 
 43692.65567		 305.27265			43387.38302		68.12000		324.00000 
 43692.65567		 654.70124			43037.95443		154.43400		875.00000 
 43692.65567		 305.27265			43387.38302		68.12000		324.00000 
 43692.65567		 654.70124			43037.95443		154.43400		875.00000 
 43692.65567		 305.27265			43387.38302		68.12000		324.00000 
 43692.65567		 654.70124			43037.95443		154.43400		875.00000 
 43692.65567		 305.27265			43387.38302		68.12000		324.00000 
 43692.65567		 654.70124			43037.95443		154.43400		875.00000 
 43692.65567		 305.27265			43387.38302		68.12000		324.00000 
 43692.65567		 654.70124			43037.95443		154.43400		875.00000 
 43692.65567		 305.27265			43387.38302		68.12000		324.00000 
 43692.65567		 654.70124			43037.95443		154.43400		875.00000 
 43692.65567		 305.27265			43387.38302		68.12000		324.00000 
 43692.65567		 654.70124			43037.95443		154.43400		875.00000 
 43692.65567		 305.27265			43387.38302		68.12000		324.00000 
 43692.65567		 654.70124			43037.95443		154.43400		875.00000 
 43692.65567		 305.27265			43387.38302		68.12000		324.00000 
 43692.65567		 654.70124			43037.95443		154.43400		875.00000 
 43692.65567		 305.27265			43387.38302		68.12000		324.00000 
 43692.65567		 654.70124			43037.95443		154.43400		875.00000 
 43692.65567		 305.27265			43387.38302		68.12000		324.00000 
 43692.65567		 654.70124			43037.95443		154.43400		875.00000 
 43692.65567		 305.27265			43387.38302		68.12000		324.00000 
 43692.65567		 654.70124			43037.95443		154.43400		875.00000 
 43692.65567		 305.27265			43387.38302		68.12000		324.00000 
 43692.65567		 654.70124			43037.95443		154.43400		875.00000 
 43692.65567		 305.27265			43387.38302		68.12000		324.00000 
 43692.65567		 654.70124			43037.95443		154.43400		875.00000 
 43692.65567		 305.27265			43387.38302		68.12000		324.00000 
 43692.65567		 654.70124			43037.95443		154.43400		875.00000 
 43692.65567		 305.27265			43387.38302		68.12000		324.00000 
 43692.65567		 654.70124			43037.95443		154.43400		875.00000 
 43692.65567		 305.27265			43387.38302		68.12000		324.00000 
 43692.65567		 654.70124			43037.95443		154.43400		875.00000 
 43692.65567		 305.27265			43387.38302		68.12000		324.00000 
 43692.65567		 654.70124			43037.95443		154.43400		875.00000 
 43692.65567		 305.27265			43387.38302		68.12000		324.00000 
 43692.65567		 654.70124			43037.95443		154.43400		875.00000 
 43692.65567		 305.27265			43387.38302		68.12000		324.00000 
 43692.65567		 654.70124			43037.95443		154.43400		875.00000 
 43692.65567		 305.27265			43387.38302		68.12000		324.00000 
 43692.65567		 654.70124			43037.95443		154.43400		875.00000 
 43692.65567		 305.27265			43387.38302		68.12000		324.00000 
 43692.65567		 654.70124			43037.95443		154.43400		875.00000 
 43692.65567		 305.27265			43387.38302		68.12000		324.00000 
 43692.65567		 654.70124			43037.95443		154.43400		875.00000 
 43692.65567		 305.27265			43387.38302		68.12000		324.00000 
 43692.65567		 654.70124			43037.95443		154.43400		875.00000 
 43692.65567		 305.27265			43387.38302		68.12000		324.00000 
 43692.65567		 654.70124			43037.95443		154.43400		875.00000 
 43692.65567		 305.27265			43387.38302		68.12000		324.00000 
 43692.65567		 654.70124			43037.95443		154.43400		875.00000 
 43692.65567		 305.27265			43387.38302		68.12000		324.00000 
 43692.65567		 654.70124			43037.95443		154.43400		875.00000 
 43692.65567		 305.27265			43387.38302		68.12000		324.00000 
 43692.65567		 654.70124			43037.95443		154.43400		875.00000 
 43692.65567		 305.27265			43387.38302		68.12000		324.00000 
 43692.65567		 654.70124			43037.95443		154.43400		875.00000 
 43692.65567		 305.27265			43387.38302		68.12000		324.00000 
 43692.65567		 654.70124			43037.95443		154.43400		875.00000 
 43692.65567		 305.27265			43387.38302		68.12000		324.00000 
 43692.65567		 654.70124			43037.95443		154.43400		875.00000 
 43692.65567		 305.27265			43387.38302		68.12000		324.00000 
 43692.65567		 654.70124			43037.95443		154.43400		875.00000 
 43692.65567		 305.27265			43387.38302		68.12000		324.00000 
 43692.65567		 654.70124			43037.95443		154.43400		875.00000 
 43692.65567		 305.27265			43387.38302		68.12000		324.00000 
 43692.65567		 654.70124			43037.95443		154.43400		875.00000 
 43692.65567		 305.27265			43387.38302		68.12000		324.00000 
 43692.65567		 654.70124			43037.95443		154.43400		875.00000 
 43692.65567		 305.27265			43387.38302		68.12000		324.00000 
 43692.65567		 654.70124			43037.95443		154.43400		875.00000 
 43692.65567		 305.27265			43387.38302		68.12000		324.00000 
 43692.65567		 654.70124			43037.95443		154.43400		875.00000 
 43692.65567		 305.27265			43387.38302		68.12000		324.00000 
 43692.65567		 654.70124			43037.95443		154.43400		875.00000 
 43692.65567		 305.27265			43387.38302		68.12000		324.00000 
 43692.65567		 654.70124			43037.95443		154.43400		875.00000 
 43692.65567		 305.27265			43387.38302		68.12000		324.00000 
 43692.65567		 654.70124			43037.95443		154.43400		875.00000 
 43692.65567		 305.27265			43387.38302		68.12000		324.00000 
 43692.65567		 654.70124			43037.95443		154.43400		875.00000 
 43692.65567		 305.27265			43387.38302		68.12000		324.00000 
 43692.65567		 654.70124			43037.95443		154.43400		875.00000 
 43692.65567		 305.27265			43387.38302		68.12000		324.00000 
 43692.65567		 654.70124			43037.95443		154.43400		875.00000 
 43692.65567		 305.27265			43387.38302		68.12000		324.00000 
 43692.65567		 654.70124			43037.95443		154.43400		875.00000 
 43692.65567		 305.27265			43387.38302		68.12000		324.00000 
 43692.65567		 654.70124			43037.95443		154.43400		875.00000 
 43692.65567		 305.27265			43387.38302		68.12000		324.00000 
 43692.65567		 654.70124			43037.95443		154.43400		875.00000 
 43692.65567		 305.27265			43387.38302		68.12000		324.00000 
 43692.65567		 654.70124			43037.95443		154.43400		875.00000 
 43692.65567		 305.27265			43387.38302		68.12000		324.00000 
 43692.65567		 654.70124			43037.95443		154.43400		875.00000 
 43692.65567		 305.27265			43387.38302		68.12000		324.00000 
 43692.65567		 654.70124			43037.95443		154.43400		875.00000 
 43692.65567		 305.27265			43387.38302		68.12000		324.00000 
 43692.65567		 654.70124			43037.95443		154.43400		875.00000 
 43692.65567		 305.27265			43387.38302		68.12000		324.00000 
 43692.65567		 654.70124			43037.95443		154.43400		875.00000 
 43692.65567		 305.27265			43387.38302		68.12000		324.00000 
 43692.65567		 654.70124			43037.95443		154.43400		875.00000 
 43692.65567		 305.27265			43387.38302		68.12000		324.00000 
 43692.65567		 654.70124			43037.95443		154.43400		875.00000 
 43692.65567		 305.27265			43387.38302		68.12000		324.00000 
 43692.65567		 654.70124			43037.95443		154.43400		875.00000 
 43692.65567		 305.27265			43387.38302		68.12000		324.00000 
 43692.65567		 654.70124			43037.95443		154.43400		875.00000 
 43692.65567		 305.27265			43387.38302		68.12000		324.00000 
 43692.65567		 654.70124			43037.95443		154.43400		875.00000 
 43692.65567		 305.27265			43387.38302		68.12000		324.00000 
 43692.65567		 654.70124			43037.95443		154.43400		875.00000 
 43692.65567		 305.27265			43387.38302		68.12000		324.00000 
 43692.65567		 654.70124			43037.95443		154.43400		875.00000 
 43692.65567		 305.27265			43387.38302		68.12000		324.00000 
 43692.65567		 654.70124			43037.95443		154.43400		875.00000 
 43692.65567		 305.27265			43387.38302		68.12000		324.00000 
 43692.65567		 654.70124			43037.95443		154.43400		875.00000 
 43692.65567		 305.27265			43387.38302		68.12000		324.00000 
 43692.65567		 654.70124			43037.95443		154.43400		875.00000 
 43692.65567		 305.27265			43387.38302		68.12000		324.00000 
 43692.65567		 654.70124			43037.95443		154.43400		875.00000 
 43692.65567		 305.27265			43387.38302		68.12000		324.00000 
 43692.65567		 654.70124			43037.95443		197.31800		875.00000 
 43692.65567		 305.27265			43387.38302		68.12000		324.00000 
 43692.65567		 654.70124			43037.95443		197.31800		875.00000 
 43692.65567		 305.27265			43387.38302		68.12000		324.00000 
 43692.65567		 654.70124			43037.95443		197.31800		875.00000 
 43692.65567		 305.27265			43387.38302		68.12000		324.00000 
 43692.65567		 654.70124			43037.95443		197.31800		875.00000 
 43692.65567		 305.27265			43387.38302		68.12000		324.00000 
 43692.65567		 654.70124			43037.95443		197.31800		875.00000 
 43692.65567		 305.27265			43387.38302		68.12000		324.00000 
 43692.65567		 654.70124			43037.95443		197.31800		875.00000 
 43692.65567		 305.27265			43387.38302		68.12000		324.00000 
 43692.65567		 654.70124			43037.95443		197.31800		875.00000 
 43692.65567		 305.27265			43387.38302		68.12000		324.00000 
 43692.65567		 654.70124			43037.95443		197.31800		875.00000 
 43692.65567		 305.27265			43387.38302		68.12000		324.00000 
 43692.65567		 654.70124			43037.95443		197.31800		875.00000 
 43692.65567		 305.27265			43387.38302		68.12000		324.00000 
 43692.65567		 654.70124			43037.95443		197.31800		875.00000 
 43692.65567		 305.27265			43387.38302		68.12000		324.00000 
 43692.65567		 654.70124			43037.95443		197.31800		875.00000 
 43692.65567		 305.27265			43387.38302		68.12000		324.00000 
 43692.65567		 654.70124			43037.95443		197.31800		875.00000 
 43692.65567		 305.27265			43387.38302		68.12000		324.00000 
 43692.65567		 654.70124			43037.95443		197.31800		875.00000 
 43692.65567		 305.27265			43387.38302		68.12000		324.00000 
 43692.65567		 654.70124			43037.95443		197.31800		875.00000 
 43692.65567		 305.27265			43387.38302		68.12000		324.00000 
 43692.65567		 654.70124			43037.95443		197.31800		875.00000 
 43692.65567		 305.27265			43387.38302		68.12000		324.00000 
 43692.65567		 654.70124			43037.95443		197.31800		875.00000 
 43692.65567		 305.27265			43387.38302		68.12000		324.00000 
 43692.65567		 654.70124			43037.95443		197.31800		875.00000 
 43692.65567		 305.27265			43387.38302		68.12000		324.00000 
 43692.65567		 654.70124			43037.95443		197.31800		875.00000 
 43692.65567		 305.27265			43387.38302		68.12000		324.00000 
 43692.65567		 654.70124			43037.95443		197.31800		875.00000 
 43692.65567		 305.27265			43387.38302		68.12000		324.00000 
 43692.65567		 654.70124			43037.95443		197.31800		875.00000 
 43692.65567		 305.27265			43387.38302		68.12000		324.00000 
 43692.65567		 654.70124			43037.95443		197.31800		875.00000 
 43692.65567		 305.27265			43387.38302		68.12000		324.00000 
 43692.65567		 654.70124			43037.95443		197.31800		875.00000 
 43692.65567		 305.27265			43387.38302		68.12000		324.00000 
 43692.65567		 654.70124			43037.95443		197.31800		875.00000 
 43692.65567		 305.27265			43387.38302		68.12000		324.00000 
 43692.65567		 654.70124			43037.95443		197.31800		875.00000 
 43692.65567		 305.27265			43387.38302		68.12000		324.00000 
 43692.65567		 654.70124			43037.95443		197.31800		875.00000 
 43692.65567		 305.27265			43387.38302		68.12000		324.00000 
 43692.65567		 654.70124			43037.95443		197.31800		875.00000 
 43692.65567		 305.27265			43387.38302		68.12000		324.00000 
 43692.65567		 654.70124			43037.95443		197.31800		875.00000 
 43692.65567		 305.27265			43387.38302		68.12000		324.00000 
 43692.65567		 654.70124			43037.95443		197.31800		875.00000 
 43692.65567		 305.27265			43387.38302		68.12000		324.00000 
 43692.65567		 654.70124			43037.95443		197.31800		875.00000 
 43692.65567		 305.27265			43387.38302		68.12000		324.00000 
 43692.65567		 654.70124			43037.95443		197.31800		875.00000 
 43692.65567		 305.27265			43387.38302		68.12000		324.00000 
 43692.65567		 654.70124			43037.95443		197.31800		875.00000 
 43692.65567		 305.27265			43387.38302		68.12000		324.00000 
 43692.65567		 654.70124			43037.95443		197.31800		875.00000 
 43692.65567		 305.27265			43387.38302		68.12000		324.00000 
 43692.65567		 654.70124			43037.95443		197.31800		875.00000 
 43692.65567		 305.27265			43387.38302		68.12000		324.00000 
 43692.65567		 654.70124			43037.95443		197.31800		875.00000 
 43692.65567		 305.27265			43387.38302		68.12000		324.00000 
 43692.65567		 654.70124			43037.95443		197.31800		875.00000 
 43692.65567		 305.27265			43387.38302		68.12000		324.00000 
 43692.65567		 654.70124			43037.95443		197.31800		875.00000 
 43692.65567		 305.27265			43387.38302		68.12000		324.00000 
 43692.65567		 654.70124			43037.95443		197.31800		875.00000 
 43692.65567		 305.27265			43387.38302		68.12000		324.00000 
 43692.65567		 654.70124			43037.95443		197.31800		875.00000 
 43692.65567		 305.27265			43387.38302		68.12000		324.00000 
 43692.65567		 654.70124			43037.95443		197.31800		875.00000 
 43692.65567		 305.27265			43387.38302		68.12000		324.00000 
 43692.65567		 654.70124			43037.95443		197.31800		875.00000 
 43692.65567		 305.27265			43387.38302		68.12000		324.00000 
 43692.65567		 654.70124			43037.95443		197.31800		875.00000 
 43692.65567		 305.27265			43387.38302		68.12000		324.00000 
 43692.65567		 654.70124			43037.95443		197.31800		875.00000 
 43692.65567		 305.27265			43387.38302		68.12000		324.00000 
 43692.65567		 654.70124			43037.95443		197.31800		875.00000 
 43692.65567		 305.27265			43387.38302		68.12000		324.00000 
 43692.65567		 654.70124			43037.95443		197.31800		875.00000 
 43692.65567		 305.27265			43387.38302		68.12000		324.00000 
 43692.65567		 654.70124			43037.95443		197.31800		875.00000 
 43692.65567		 305.27265			43387.38302		68.12000		324.00000 
 43692.65567		 654.70124			43037.95443		197.31800		875.00000 
 43692.65567		 305.27265			43387.38302		68.12000		324.00000 
 43692.65567		 654.70124			43037.95443		197.31800		875.00000 
 43692.65567		 305.27265			43387.38302		68.12000		324.00000 
 43692.65567		 654.70124			43037.95443		197.31800		875.00000 
 43692.65567		 305.27265			43387.38302		68.12000		324.00000 
 43692.65567		 654.70124			43037.95443		197.31800		875.00000 
 43692.65567		 305.27265			43387.38302		68.12000		324.00000 
 43692.65567		 654.70124			43037.95443		197.31800		875.00000 
 43692.65567		 305.27265			43387.38302		68.12000		324.00000 
 43692.65567		 654.70124			43037.95443		197.31800		875.00000 
 43692.65567		 305.27265			43387.38302		68.12000		324.00000 
 43692.65567		 654.70124			43037.95443		197.31800		875.00000 
 43692.65567		 305.27265			43387.38302		68.12000		324.00000 
 43692.65567		 654.70124			43037.95443		197.31800		875.00000 
 43692.65567		 305.27265			43387.38302		68.12000		324.00000 
 43692.65567		 654.70124			43037.95443		197.31800		875.00000 
 43692.65567		 305.27265			43387.38302		68.12000		324.00000 
 43692.65567		 654.70124			43037.95443		197.31800		875.00000 
 43692.65567		 305.27265			43387.38302		68.12000		324.00000 
 43692.65567		 654.70124			43037.95443		197.31800		875.00000 
 43692.65567		 305.27265			43387.38302		68.12000		324.00000 
 43692.65567		 654.70124			43037.95443		197.31800		875.00000 
 43692.65567		 305.27265			43387.38302		68.12000		324.00000 
 43692.65567		 654.70124			43037.95443		197.31800		875.00000 
 43692.65567		 305.27265			43387.38302		68.12000		324.00000 
 43692.65567		 654.70124			43037.95443		197.31800		875.00000 
 43692.65567		 305.27265			43387.38302		68.12000		324.00000 
 43692.65567		 654.70124			43037.95443		197.31800		875.00000 
 43692.65567		 305.27265			43387.38302		68.12000		324.00000 
 43692.65567		 654.70124			43037.95443		197.31800		875.00000 
 43692.65567		 305.27265			43387.38302		68.12000		324.00000 
 43692.65567		 654.70124			43037.95443		197.31800		875.00000 
 43692.65567		 305.27265			43387.38302		68.12000		324.00000 
 43692.65567		 654.70124			43037.95443		197.31800		875.00000 
 43692.65567		 305.27265			43387.38302		68.12000		324.00000 
 43692.65567		 654.70124			43037.95443		197.31800		875.00000 
 43692.65567		 305.27265			43387.38302		68.12000		324.00000 
 43692.65567		 654.70124			43037.95443		197.31800		875.00000 
 43692.65567		 305.27265			43387.38302		68.12000		324.00000 
 43692.65567		 654.70124			43037.95443		213.31200		875.00000 
 43692.65567		 305.27265			43387.38302		68.12000		324.00000 
 43692.65567		 654.70124			43037.95443		213.31200		875.00000 
 43692.65567		 305.27265			43387.38302		68.12000		324.00000 
 43692.65567		 654.70124			43037.95443		213.31200		875.00000 
 43692.65567		 305.27265			43387.38302		68.12000		324.00000 
 43692.65567		 654.70124			43037.95443		213.31200		875.00000 
 43692.65567		 305.27265			43387.38302		68.12000		324.00000 
 43692.65567		 654.70124			43037.95443		213.31200		875.00000 
 43692.65567		 305.27265			43387.38302		68.12000		324.00000 
 43692.65567		 654.70124			43037.95443		213.31200		875.00000 
 43692.65567		 305.27265			43387.38302		68.12000		324.00000 
 43692.65567		 654.70124			43037.95443		213.31200		875.00000 
 43692.65567		 305.27265			43387.38302		68.12000		324.00000 
 43692.65567		 654.70124			43037.95443		213.31200		875.00000 
 43692.65567		 305.27265			43387.38302		68.12000		324.00000 
 43692.65567		 654.70124			43037.95443		213.31200		875.00000 
 43692.65567		 305.27265			43387.38302		68.12000		324.00000 
 43692.65567		 654.70124			43037.95443		213.31200		875.00000 
 43692.65567		 305.27265			43387.38302		68.12000		324.00000 
 43692.65567		 654.70124			43037.95443		213.31200		875.00000 
 43692.65567		 305.27265			43387.38302		68.12000		324.00000 
 43692.65567		 654.70124			43037.95443		213.31200		875.00000 
 43692.65567		 305.27265			43387.38302		68.12000		324.00000 
 43692.65567		 654.70124			43037.95443		213.31200		875.00000 
 43692.65567		 305.27265			43387.38302		68.12000		324.00000 
 43692.65567		 654.70124			43037.95443		213.31200		875.00000 
 43692.65567		 305.27265			43387.38302		68.12000		324.00000 
 43692.65567		 654.70124			43037.95443		213.31200		875.00000 
 43692.65567		 305.27265			43387.38302		68.12000		324.00000 
 43692.65567		 654.70124			43037.95443		213.31200		875.00000 
 43692.65567		 305.27265			43387.38302		68.12000		324.00000 
 43692.65567		 654.70124			43037.95443		213.31200		875.00000 
 43692.65567		 305.27265			43387.38302		68.12000		324.00000 
 43692.65567		 654.70124			43037.95443		213.31200		875.00000 
 43692.65567		 305.27265			43387.38302		68.12000		324.00000 
 43692.65567		 654.70124			43037.95443		213.31200		875.00000 
 43692.65567		 305.27265			43387.38302		68.12000		324.00000 
 43692.65567		 654.70124			43037.95443		213.31200		875.00000 
 43692.65567		 305.27265			43387.38302		68.12000		324.00000 
 43692.65567		 654.70124			43037.95443		213.31200		875.00000 
 43692.65567		 305.27265			43387.38302		68.12000		324.00000 
 43692.65567		 654.70124			43037.95443		213.31200		875.00000 
 43692.65567		 305.27265			43387.38302		68.12000		324.00000 
 43692.65567		 654.70124			43037.95443		213.31200		875.00000 
 43692.65567		 305.27265			43387.38302		68.12000		324.00000 
 43692.65567		 654.70124			43037.95443		213.31200		875.00000 
 43692.65567		 305.27265			43387.38302		68.12000		324.00000 
 43692.65567		 654.70124			43037.95443		213.31200		875.00000 
 43692.65567		 305.27265			43387.38302		68.12000		324.00000 
 43692.65567		 654.70124			43037.95443		213.31200		875.00000 
 43692.65567		 305.27265			43387.38302		68.12000		324.00000 
 43692.65567		 654.70124			43037.95443		213.31200		875.00000 
 43692.65567		 305.27265			43387.38302		68.12000		324.00000 
 43692.65567		 654.70124			43037.95443		213.31200		875.00000 
 43692.65567		 305.27265			43387.38302		68.12000		324.00000 
 43692.65567		 654.70124			43037.95443		213.31200		875.00000 
 43692.65567		 305.27265			43387.38302		68.12000		324.00000 
 43692.65567		 654.70124			43037.95443		213.31200		875.00000 
 43692.65567		 305.27265			43387.38302		68.12000		324.00000 
 43692.65567		 654.70124			43037.95443		213.31200		875.00000 
 43692.65567		 305.27265			43387.38302		68.12000		324.00000 
 43692.65567		 654.70124			43037.95443		213.31200		875.00000 
 43692.65567		 305.27265			43387.38302		68.12000		324.00000 
 43692.65567		 654.70124			43037.95443		213.31200		875.00000 
 43692.65567		 305.27265			43387.38302		68.12000		324.00000 
 43692.65567		 654.70124			43037.95443		213.31200		875.00000 
 43692.65567		 305.27265			43387.38302		68.12000		324.00000 
 43692.65567		 654.70124			43037.95443		213.31200		875.00000 
 43692.65567		 305.27265			43387.38302		68.12000		324.00000 
 43692.65567		 654.70124			43037.95443		213.31200		875.00000 
 43692.65567		 305.27265			43387.38302		68.12000		324.00000 
 43692.65567		 654.70124			43037.95443		213.31200		875.00000 
 43692.65567		 305.27265			43387.38302		68.12000		324.00000 
 43692.65567		 654.70124			43037.95443		213.31200		875.00000 
 43692.65567		 305.27265			43387.38302		68.12000		324.00000 
 43692.65567		 654.70124			43037.95443		213.31200		875.00000 
 43692.65567		 305.27265			43387.38302		68.12000		324.00000 
 43692.65567		 654.70124			43037.95443		213.31200		875.00000 
 43692.65567		 305.27265			43387.38302		68.12000		324.00000 
 43692.65567		 654.70124			43037.95443		213.31200		875.00000 
 43692.65567		 305.27265			43387.38302		68.12000		324.00000 
 43692.65567		 654.70124			43037.95443		213.31200		875.00000 
 43692.65567		 305.27265			43387.38302		68.12000		324.00000 
 43692.65567		 654.70124			43037.95443		213.31200		875.00000 
 43692.65567		 305.27265			43387.38302		68.12000		324.00000 
 43692.65567		 654.70124			43037.95443		213.31200		875.00000 
 43692.65567		 305.27265			43387.38302		68.12000		324.00000 
 43692.65567		 654.70124			43037.95443		213.31200		875.00000 
 43692.65567		 305.27265			43387.38302		68.12000		324.00000 
 43692.65567		 654.70124			43037.95443		213.31200		875.00000 
 43692.65567		 305.27265			43387.38302		68.12000		324.00000 
 43692.65567		 654.70124			43037.95443		213.31200		875.00000 
 43692.65567		 305.27265			43387.38302		68.12000		324.00000 
 43692.65567		 654.70124			43037.95443		213.31200		875.00000 
 43692.65567		 305.27265			43387.38302		68.12000		324.00000 
 43692.65567		 654.70124			43037.95443		213.31200		875.00000 
 43692.65567		 305.27265			43387.38302		68.12000		324.00000 
 43692.65567		 654.70124			43037.95443		213.31200		875.00000 
 43692.65567		 305.27265			43387.38302		68.12000		324.00000 
 43692.65567		 654.70124			43037.95443		213.31200		875.00000 
 43692.65567		 305.27265			43387.38302		68.12000		324.00000 
 43692.65567		 654.70124			43037.95443		213.31200		875.00000 
 43692.65567		 305.27265			43387.38302		68.12000		324.00000 
 43692.65567		 654.70124			43037.95443		213.31200		875.00000 
 43692.65567		 305.27265			43387.38302		68.12000		324.00000 
 43692.65567		 654.70124			43037.95443		213.31200		875.00000 
 43692.65567		 305.27265			43387.38302		68.12000		324.00000 
 43692.65567		 654.70124			43037.95443		213.31200		875.00000 
 43692.65567		 305.27265			43387.38302		68.12000		324.00000 
 43692.65567		 654.70124			43037.95443		213.31200		875.00000 
 43692.65567		 305.27265			43387.38302		68.12000		324.00000 
 43692.65567		 654.70124			43037.95443		213.31200		875.00000 
 43692.65567		 305.27265			43387.38302		68.12000		324.00000 
 43692.65567		 654.70124			43037.95443		213.31200		875.00000 
 43692.65567		 305.27265			43387.38302		68.12000		324.00000 
 43692.65567		 654.70124			43037.95443		213.31200		875.00000 
 43692.65567		 305.27265			43387.38302		68.12000		324.00000 
 43692.65567		 654.70124			43037.95443		213.31200		875.00000 
 43692.65567		 305.27265			43387.38302		68.12000		324.00000 
 43692.65567		 654.70124			43037.95443		213.31200		875.00000 
 43692.65567		 305.27265			43387.38302		68.12000		324.00000 
 43692.65567		 654.70124			43037.95443		213.31200		875.00000 
 43692.65567		 305.27265			43387.38302		68.12000		324.00000 
 43692.65567		 654.70124			43037.95443		213.31200		875.00000 
 43692.65567		 305.27265			43387.38302		68.12000		324.00000 
 43692.65567		 654.70124			43037.95443		213.31200		875.00000 
 43692.65567		 305.27265			43387.38302		68.12000		324.00000 
 43692.65567		 654.70124			43037.95443		218.56000		875.00000 
 43692.65567		 305.27265			43387.38302		68.12000		324.00000 
 43692.65567		 654.70124			43037.95443		218.56000		875.00000 
 43692.65567		 305.27265			43387.38302		68.12000		324.00000 
 43692.65567		 654.70124			43037.95443		218.56000		875.00000 
 43692.65567		 305.27265			43387.38302		68.12000		324.00000 
 43692.65567		 654.70124			43037.95443		218.56000		875.00000 
 43692.65567		 305.27265			43387.38302		68.12000		324.00000 
 43692.65567		 654.70124			43037.95443		218.56000		875.00000 
 43692.65567		 305.27265			43387.38302		68.12000		324.00000 
 43692.65567		 654.70124			43037.95443		218.56000		875.00000 
 43692.65567		 305.27265			43387.38302		68.12000		324.00000 
 43692.65567		 654.70124			43037.95443		218.56000		875.00000 
 43692.65567		 305.27265			43387.38302		68.12000		324.00000 
 43692.65567		 654.70124			43037.95443		218.56000		875.00000 
 43692.65567		 305.27265			43387.38302		68.12000		324.00000 
 43692.65567		 654.70124			43037.95443		218.56000		875.00000 
 43692.65567		 305.27265			43387.38302		68.12000		324.00000 
 43692.65567		 654.70124			43037.95443		218.56000		875.00000 
 43692.65567		 305.27265			43387.38302		68.12000		324.00000 
 43692.65567		 654.70124			43037.95443		218.56000		875.00000 
 43692.65567		 305.27265			43387.38302		68.12000		324.00000 
 43692.65567		 654.70124			43037.95443		218.56000		875.00000 
 43692.65567		 305.27265			43387.38302		68.12000		324.00000 
 43692.65567		 654.70124			43037.95443		218.56000		875.00000 
 43692.65567		 305.27265			43387.38302		68.12000		324.00000 
 43692.65567		 654.70124			43037.95443		218.56000		875.00000 
 43692.65567		 305.27265			43387.38302		68.12000		324.00000 
 43692.65567		 654.70124			43037.95443		218.56000		875.00000 
 43692.65567		 305.27265			43387.38302		68.12000		324.00000 
 43692.65567		 654.70124			43037.95443		218.56000		875.00000 
 43692.65567		 305.27265			43387.38302		68.12000		324.00000 
 43692.65567		 654.70124			43037.95443		218.56000		875.00000 
 43692.65567		 305.27265			43387.38302		68.12000		324.00000 
 43692.65567		 654.70124			43037.95443		218.56000		875.00000 
 43692.65567		 305.27265			43387.38302		68.12000		324.00000 
 43692.65567		 654.70124			43037.95443		218.56000		875.00000 
 43692.65567		 305.27265			43387.38302		68.12000		324.00000 
 43692.65567		 654.70124			43037.95443		218.56000		875.00000 
 43692.65567		 305.27265			43387.38302		68.12000		324.00000 
 43692.65567		 654.70124			43037.95443		218.56000		875.00000 
 43692.65567		 305.27265			43387.38302		68.12000		324.00000 
 43692.65567		 654.70124			43037.95443		218.56000		875.00000 
 43692.65567		 305.27265			43387.38302		68.12000		324.00000 
 43692.65567		 654.70124			43037.95443		218.56000		875.00000 
 43692.65567		 305.27265			43387.38302		68.12000		324.00000 
 43692.65567		 654.70124			43037.95443		218.56000		875.00000 
 43692.65567		 305.27265			43387.38302		68.12000		324.00000 
 43692.65567		 654.70124			43037.95443		218.56000		875.00000 
 43692.65567		 305.27265			43387.38302		68.12000		324.00000 
 43692.65567		 654.70124			43037.95443		218.56000		875.00000 
 43692.65567		 305.27265			43387.38302		68.12000		324.00000 
 43692.65567		 654.70124			43037.95443		218.56000		875.00000 
 43692.65567		 305.27265			43387.38302		68.12000		324.00000 
 43692.65567		 654.70124			43037.95443		218.56000		875.00000 
 43692.65567		 305.27265			43387.38302		68.12000		324.00000 
 43692.65567		 654.70124			43037.95443		218.56000		875.00000 
 43692.65567		 305.27265			43387.38302		68.12000		324.00000 
 43692.65567		 654.70124			43037.95443		218.56000		875.00000 
 43692.65567		 305.27265			43387.38302		68.12000		324.00000 
 43692.65567		 654.70124			43037.95443		218.56000		875.00000 
 43692.65567		 305.27265			43387.38302		68.12000		324.00000 
 43692.65567		 654.70124			43037.95443		218.56000		875.00000 
 43692.65567		 305.27265			43387.38302		68.12000		324.00000 
 43692.65567		 654.70124			43037.95443		218.56000		875.00000 
 43692.65567		 305.27265			43387.38302		68.12000		324.00000 
 43692.65567		 654.70124			43037.95443		218.56000		875.00000 
 43692.65567		 305.27265			43387.38302		68.12000		324.00000 
 43692.65567		 654.70124			43037.95443		218.56000		875.00000 
 43692.65567		 305.27265			43387.38302		68.12000		324.00000 
 43692.65567		 654.70124			43037.95443		218.56000		875.00000 
 43692.65567		 305.27265			43387.38302		68.12000		324.00000 
 43692.65567		 654.70124			43037.95443		218.56000		875.00000 
 43692.65567		 305.27265			43387.38302		68.12000		324.00000 
 43692.65567		 654.70124			43037.95443		218.56000		875.00000 
 43692.65567		 305.27265			43387.38302		68.12000		324.00000 
 43692.65567		 654.70124			43037.95443		218.56000		875.00000 
 43692.65567		 305.27265			43387.38302		68.12000		324.00000 
 43692.65567		 654.70124			43037.95443		218.56000		875.00000 
 43692.65567		 305.27265			43387.38302		68.12000		324.00000 
 43692.65567		 654.70124			43037.95443		218.56000		875.00000 
 43692.65567		 305.27265			43387.38302		68.12000		324.00000 
 43692.65567		 654.70124			43037.95443		218.56000		875.00000 
 43692.65567		 305.27265			43387.38302		68.12000		324.00000 
 43692.65567		 654.70124			43037.95443		218.56000		875.00000 
 43692.65567		 305.27265			43387.38302		68.12000		324.00000 
 43692.65567		 654.70124			43037.95443		218.56000		875.00000 
 43692.65567		 305.27265			43387.38302		68.12000		324.00000 
 43692.65567		 654.70124			43037.95443		218.56000		875.00000 
 43692.65567		 305.27265			43387.38302		68.12000		324.00000 
 43692.65567		 654.70124			43037.95443		218.56000		875.00000 
 43692.65567		 305.27265			43387.38302		68.12000		324.00000 
 43692.65567		 654.70124			43037.95443		218.56000		875.00000 
 43692.65567		 305.27265			43387.38302		68.12000		324.00000 
 43692.65567		 654.70124			43037.95443		218.56000		875.00000 
 43692.65567		 305.27265			43387.38302		68.12000		324.00000 
 43692.65567		 654.70124			43037.95443		218.56000		875.00000 
 43692.65567		 305.27265			43387.38302		68.12000		324.00000 
 43692.65567		 654.70124			43037.95443		218.56000		875.00000 
 43692.65567		 305.27265			43387.38302		68.12000		324.00000 
 43692.65567		 654.70124			43037.95443		218.56000		875.00000 
 43692.65567		 305.27265			43387.38302		68.12000		324.00000 
 43692.65567		 654.70124			43037.95443		218.56000		875.00000 
 43692.65567		 305.27265			43387.38302		68.12000		324.00000 
 43692.65567		 654.70124			43037.95443		218.56000		875.00000 
 43692.65567		 305.27265			43387.38302		68.12000		324.00000 
 43692.65567		 654.70124			43037.95443		218.56000		875.00000 
 43692.65567		 305.27265			43387.38302		68.12000		324.00000 
 43692.65567		 654.70124			43037.95443		218.56000		875.00000 
 43692.65567		 305.27265			43387.38302		68.12000		324.00000 
 43692.65567		 654.70124			43037.95443		218.56000		875.00000 
 43692.65567		 305.27265			43387.38302		68.12000		324.00000 
 43692.65567		 654.70124			43037.95443		218.56000		875.00000 
 43692.65567		 305.27265			43387.38302		68.12000		324.00000 
 43692.65567		 654.70124			43037.95443		218.56000		875.00000 
 43692.65567		 305.27265			43387.38302		68.12000		324.00000 
 43692.65567		 654.70124			43037.95443		218.56000		875.00000 
 43692.65567		 305.27265			43387.38302		68.12000		324.00000 
 43692.65567		 654.70124			43037.95443		218.56000		875.00000 
 43692.65567		 305.27265			43387.38302		68.12000		324.00000 
 43692.65567		 654.70124			43037.95443		218.56000		875.00000 
 43692.65567		 305.27265			43387.38302		68.12000		324.00000 
 43692.65567		 654.70124			43037.95443		218.56000		875.00000 
 43692.65567		 305.27265			43387.38302		68.12000		324.00000 
 43692.65567		 654.70124			43037.95443		218.56000		875.00000 
 43692.65567		 305.27265			43387.38302		68.12000		324.00000 
 43692.65567		 654.70124			43037.95443		218.56000		875.00000 
 43692.65567		 305.27265			43387.38302		68.12000		324.00000 
 43692.65567		 654.70124			43037.95443		218.56000		875.00000 
 43692.65567		 305.27265			43387.38302		68.12000		324.00000 
 43692.65567		 654.70124			43037.95443		221.50200		875.00000 
 43692.65567		 305.27265			43387.38302		68.12000		324.00000 
 43692.65567		 654.70124			43037.95443		221.50200		875.00000 
 43692.65567		 305.27265			43387.38302		68.12000		324.00000 
 43692.65567		 654.70124			43037.95443		221.50200		875.00000 
 43692.65567		 305.27265			43387.38302		68.12000		324.00000 
 43692.65567		 654.70124			43037.95443		221.50200		875.00000 
 43692.65567		 305.27265			43387.38302		68.12000		324.00000 
 43692.65567		 654.70124			43037.95443		221.50200		875.00000 
 43692.65567		 305.27265			43387.38302		68.12000		324.00000 
 43692.65567		 654.70124			43037.95443		221.50200		875.00000 
 43692.65567		 305.27265			43387.38302		68.12000		324.00000 
 43692.65567		 654.70124			43037.95443		221.50200		875.00000 
 43692.65567		 305.27265			43387.38302		68.12000		324.00000 
 43692.65567		 654.70124			43037.95443		221.50200		875.00000 
 43692.65567		 305.27265			43387.38302		68.12000		324.00000 
 43692.65567		 654.70124			43037.95443		221.50200		875.00000 
 43692.65567		 305.27265			43387.38302		68.12000		324.00000 
 43692.65567		 654.70124			43037.95443		221.50200		875.00000 
 43692.65567		 305.27265			43387.38302		68.12000		324.00000 
 43692.65567		 654.70124			43037.95443		221.50200		875.00000 
 43692.65567		 305.27265			43387.38302		68.12000		324.00000 
 43692.65567		 654.70124			43037.95443		221.50200		875.00000 
 43692.65567		 305.27265			43387.38302		68.12000		324.00000 
 43692.65567		 654.70124			43037.95443		221.50200		875.00000 
 43692.65567		 305.27265			43387.38302		68.12000		324.00000 
 43692.65567		 654.70124			43037.95443		221.50200		875.00000 
 43692.65567		 305.27265			43387.38302		68.12000		324.00000 
 43692.65567		 654.70124			43037.95443		221.50200		875.00000 
 43692.65567		 305.27265			43387.38302		68.12000		324.00000 
 43692.65567		 654.70124			43037.95443		221.50200		875.00000 
 43692.65567		 305.27265			43387.38302		68.12000		324.00000 
 43692.65567		 654.70124			43037.95443		221.50200		875.00000 
 43692.65567		 305.27265			43387.38302		68.12000		324.00000 
 43692.65567		 654.70124			43037.95443		221.50200		875.00000 
 43692.65567		 305.27265			43387.38302		68.12000		324.00000 
 43692.65567		 654.70124			43037.95443		221.50200		875.00000 
 43692.65567		 305.27265			43387.38302		68.12000		324.00000 
 43692.65567		 654.70124			43037.95443		221.50200		875.00000 
 43692.65567		 305.27265			43387.38302		68.12000		324.00000 
 43692.65567		 654.70124			43037.95443		221.50200		875.00000 
 43692.65567		 305.27265			43387.38302		68.12000		324.00000 
 43692.65567		 654.70124			43037.95443		221.50200		875.00000 
 43692.65567		 305.27265			43387.38302		68.12000		324.00000 
 43692.65567		 654.70124			43037.95443		221.50200		875.00000 
 43692.65567		 305.27265			43387.38302		68.12000		324.00000 
 43692.65567		 654.70124			43037.95443		221.50200		875.00000 
 43692.65567		 305.27265			43387.38302		68.12000		324.00000 
 43692.65567		 654.70124			43037.95443		221.50200		875.00000 
 43692.65567		 305.27265			43387.38302		68.12000		324.00000 
 43692.65567		 654.70124			43037.95443		221.50200		875.00000 
 43692.65567		 305.27265			43387.38302		68.12000		324.00000 
 43692.65567		 654.70124			43037.95443		221.50200		875.00000 
 43692.65567		 305.27265			43387.38302		68.12000		324.00000 
 43692.65567		 654.70124			43037.95443		221.50200		875.00000 
 43692.65567		 305.27265			43387.38302		68.12000		324.00000 
 43692.65567		 654.70124			43037.95443		221.50200		875.00000 
 43692.65567		 305.27265			43387.38302		68.12000		324.00000 
 43692.65567		 654.70124			43037.95443		221.50200		875.00000 
 43692.65567		 305.27265			43387.38302		68.12000		324.00000 
 43692.65567		 654.70124			43037.95443		221.50200		875.00000 
 43692.65567		 305.27265			43387.38302		68.12000		324.00000 
 43692.65567		 654.70124			43037.95443		221.50200		875.00000 
 43692.65567		 305.27265			43387.38302		68.12000		324.00000 
 43692.65567		 654.70124			43037.95443		221.50200		875.00000 
 43692.65567		 305.27265			43387.38302		68.12000		324.00000 
 43692.65567		 654.70124			43037.95443		221.50200		875.00000 
 43692.65567		 305.27265			43387.38302		68.12000		324.00000 
 43692.65567		 654.70124			43037.95443		221.50200		875.00000 
 43692.65567		 305.27265			43387.38302		68.12000		324.00000 
 43692.65567		 654.70124			43037.95443		221.50200		875.00000 
 43692.65567		 305.27265			43387.38302		68.12000		324.00000 
 43692.65567		 654.70124			43037.95443		221.50200		875.00000 
 43692.65567		 305.27265			43387.38302		68.12000		324.00000 
 43692.65567		 654.70124			43037.95443		221.50200		875.00000 
 43692.65567		 305.27265			43387.38302		68.12000		324.00000 
 43692.65567		 654.70124			43037.95443		221.50200		875.00000 
 43692.65567		 305.27265			43387.38302		68.12000		324.00000 
 43692.65567		 654.70124			43037.95443		221.50200		875.00000 
 43692.65567		 305.27265			43387.38302		68.12000		324.00000 
 43692.65567		 654.70124			43037.95443		221.50200		875.00000 
 43692.65567		 305.27265			43387.38302		68.12000		324.00000 
 43692.65567		 654.70124			43037.95443		221.50200		875.00000 
 43692.65567		 305.27265			43387.38302		68.12000		324.00000 
 43692.65567		 654.70124			43037.95443		221.50200		875.00000 
 43692.65567		 305.27265			43387.38302		68.12000		324.00000 
 43692.65567		 654.70124			43037.95443		221.50200		875.00000 
 43692.65567		 305.27265			43387.38302		68.12000		324.00000 
 43692.65567		 654.70124			43037.95443		221.50200		875.00000 
 43692.65567		 305.27265			43387.38302		68.12000		324.00000 
 43692.65567		 654.70124			43037.95443		221.50200		875.00000 
 43692.65567		 305.27265			43387.38302		68.12000		324.00000 
 43692.65567		 654.70124			43037.95443		221.50200		875.00000 
 43692.65567		 305.27265			43387.38302		68.12000		324.00000 
 43692.65567		 654.70124			43037.95443		221.50200		875.00000 
 43692.65567		 305.27265			43387.38302		68.12000		324.00000 
 43692.65567		 654.70124			43037.95443		221.50200		875.00000 
 43692.65567		 305.27265			43387.38302		68.12000		324.00000 
 43692.65567		 654.70124			43037.95443		221.50200		875.00000 
 43692.65567		 305.27265			43387.38302		68.12000		324.00000 
 43692.65567		 654.70124			43037.95443		221.50200		875.00000 
 43692.65567		 305.27265			43387.38302		68.12000		324.00000 
 43692.65567		 654.70124			43037.95443		221.50200		875.00000 
 43692.65567		 305.27265			43387.38302		68.12000		324.00000 
 43692.65567		 654.70124			43037.95443		221.50200		875.00000 
 43692.65567		 305.27265			43387.38302		68.12000		324.00000 
 43692.65567		 654.70124			43037.95443		221.50200		875.00000 
 43692.65567		 305.27265			43387.38302		68.12000		324.00000 
 43692.65567		 654.70124			43037.95443		221.50200		875.00000 
 43692.65567		 305.27265			43387.38302		68.12000		324.00000 
 43692.65567		 654.70124			43037.95443		221.50200		875.00000 
 43692.65567		 305.27265			43387.38302		68.12000		324.00000 
 43692.65567		 654.70124			43037.95443		221.50200		875.00000 
 43692.65567		 305.27265			43387.38302		68.12000		324.00000 
 43692.65567		 654.70124			43037.95443		221.50200		875.00000 
 43692.65567		 305.27265			43387.38302		68.12000		324.00000 
 43692.65567		 654.70124			43037.95443		221.50200		875.00000 
 43692.65567		 305.27265			43387.38302		68.12000		324.00000 
 43692.65567		 654.70124			43037.95443		221.50200		875.00000 
 43692.65567		 305.27265			43387.38302		68.12000		324.00000 
 43692.65567		 654.70124			43037.95443		221.50200		875.00000 
 43692.65567		 305.27265			43387.38302		68.12000		324.00000 
 43692.65567		 654.70124			43037.95443		221.50200		875.00000 
 43692.65567		 305.27265			43387.38302		68.12000		324.00000 
 43692.65567		 654.70124			43037.95443		221.50200		875.00000 
 43692.65567		 305.27265			43387.38302		68.12000		324.00000 
 43692.65567		 654.70124			43037.95443		221.50200		875.00000 
 43692.65567		 305.27265			43387.38302		68.12000		324.00000 
 43692.65567		 654.70124			43037.95443		221.50200		875.00000 
 43692.65567		 305.27265			43387.38302		68.12000		324.00000 
 43692.65567		 654.70124			43037.95443		221.70000		875.00000 
 43692.65567		 305.27265			43387.38302		68.12000		324.00000 
 43692.65567		 654.70124			43037.95443		221.70000		875.00000 
 43692.65567		 305.27265			43387.38302		68.12000		324.00000 
 43692.65567		 654.70124			43037.95443		221.70000		875.00000 
 43692.65567		 305.27265			43387.38302		68.12000		324.00000 
 43692.65567		 654.70124			43037.95443		221.70000		875.00000 
 43692.65567		 305.27265			43387.38302		68.12000		324.00000 
 43692.65567		 654.70124			43037.95443		221.70000		875.00000 
 43692.65567		 305.27265			43387.38302		68.12000		324.00000 
 43692.65567		 654.70124			43037.95443		221.70000		875.00000 
 43692.65567		 305.27265			43387.38302		68.12000		324.00000 
 43692.65567		 654.70124			43037.95443		221.70000		875.00000 
 43692.65567		 305.27265			43387.38302		68.12000		324.00000 
 43692.65567		 654.70124			43037.95443		221.70000		875.00000 
 43692.65567		 305.27265			43387.38302		68.12000		324.00000 
 43692.65567		 654.70124			43037.95443		221.70000		875.00000 
 43692.65567		 305.27265			43387.38302		68.12000		324.00000 
 43692.65567		 654.70124			43037.95443		221.70000		875.00000 
 43692.65567		 305.27265			43387.38302		68.12000		324.00000 
 43692.65567		 654.70124			43037.95443		221.70000		875.00000 
 43692.65567		 305.27265			43387.38302		68.12000		324.00000 
 43692.65567		 654.70124			43037.95443		221.70000		875.00000 
 43692.65567		 305.27265			43387.38302		68.12000		324.00000 
 43692.65567		 654.70124			43037.95443		221.70000		875.00000 
 43692.65567		 305.27265			43387.38302		68.12000		324.00000 
 43692.65567		 654.70124			43037.95443		221.70000		875.00000 
 43692.65567		 305.27265			43387.38302		68.12000		324.00000 
 43692.65567		 654.70124			43037.95443		221.70000		875.00000 
 43692.65567		 305.27265			43387.38302		68.12000		324.00000 
 43692.65567		 654.70124			43037.95443		221.70000		875.00000 
 43692.65567		 305.27265			43387.38302		68.12000		324.00000 
 43692.65567		 654.70124			43037.95443		221.70000		875.00000 
 43692.65567		 305.27265			43387.38302		68.12000		324.00000 
 43692.65567		 654.70124			43037.95443		221.70000		875.00000 
 43692.65567		 305.27265			43387.38302		68.12000		324.00000 
 43692.65567		 654.70124			43037.95443		221.70000		875.00000 
 43692.65567		 305.27265			43387.38302		68.12000		324.00000 
 43692.65567		 654.70124			43037.95443		221.70000		875.00000 
 43692.65567		 305.27265			43387.38302		68.12000		324.00000 
 43692.65567		 654.70124			43037.95443		221.70000		875.00000 
 43692.65567		 305.27265			43387.38302		68.12000		324.00000 
 43692.65567		 654.70124			43037.95443		221.70000		875.00000 
 43692.65567		 305.27265			43387.38302		68.12000		324.00000 
 43692.65567		 654.70124			43037.95443		221.70000		875.00000 
 43692.65567		 305.27265			43387.38302		68.12000		324.00000 
 43692.65567		 654.70124			43037.95443		221.70000		875.00000 
 43692.65567		 305.27265			43387.38302		68.12000		324.00000 
 43692.65567		 654.70124			43037.95443		221.70000		875.00000 
 43692.65567		 305.27265			43387.38302		68.12000		324.00000 
 43692.65567		 654.70124			43037.95443		221.70000		875.00000 
 43692.65567		 305.27265			43387.38302		68.12000		324.00000 
 43692.65567		 654.70124			43037.95443		221.70000		875.00000 
 43692.65567		 305.27265			43387.38302		68.12000		324.00000 
 43692.65567		 654.70124			43037.95443		221.70000		875.00000 
 43692.65567		 305.27265			43387.38302		68.12000		324.00000 
 43692.65567		 654.70124			43037.95443		221.70000		875.00000 
 43692.65567		 305.27265			43387.38302		68.12000		324.00000 
 43692.65567		 654.70124			43037.95443		221.70000		875.00000 
 43692.65567		 305.27265			43387.38302		68.12000		324.00000 
 43692.65567		 654.70124			43037.95443		221.70000		875.00000 
 43692.65567		 305.27265			43387.38302		68.12000		324.00000 
 43692.65567		 654.70124			43037.95443		221.70000		875.00000 
 43692.65567		 305.27265			43387.38302		68.12000		324.00000 
 43692.65567		 654.70124			43037.95443		221.70000		875.00000 
 43692.65567		 305.27265			43387.38302		68.12000		324.00000 
 43692.65567		 654.70124			43037.95443		221.70000		875.00000 
 43692.65567		 305.27265			43387.38302		68.12000		324.00000 
 43692.65567		 654.70124			43037.95443		221.70000		875.00000 
 43692.65567		 305.27265			43387.38302		68.12000		324.00000 
 43692.65567		 654.70124			43037.95443		221.70000		875.00000 
 43692.65567		 305.27265			43387.38302		68.12000		324.00000 
 43692.65567		 654.70124			43037.95443		221.70000		875.00000 
 43692.65567		 305.27265			43387.38302		68.12000		324.00000 
 43692.65567		 654.70124			43037.95443		221.70000		875.00000 
 43692.65567		 305.27265			43387.38302		68.12000		324.00000 
 43692.65567		 654.70124			43037.95443		221.70000		875.00000 
 43692.65567		 305.27265			43387.38302		68.12000		324.00000 
 43692.65567		 654.70124			43037.95443		221.70000		875.00000 
 43692.65567		 305.27265			43387.38302		68.12000		324.00000 
 43692.65567		 654.70124			43037.95443		221.70000		875.00000 
 43692.65567		 305.27265			43387.38302		68.12000		324.00000 
 43692.65567		 654.70124			43037.95443		221.70000		875.00000 
 43692.65567		 305.27265			43387.38302		68.12000		324.00000 
 43692.65567		 654.70124			43037.95443		221.70000		875.00000 
 43692.65567		 305.27265			43387.38302		68.12000		324.00000 
 43692.65567		 654.70124			43037.95443		221.70000		875.00000 
 43692.65567		 305.27265			43387.38302		68.12000		324.00000 
 43692.65567		 654.70124			43037.95443		221.70000		875.00000 
 43692.65567		 305.27265			43387.38302		68.12000		324.00000 
 43692.65567		 654.70124			43037.95443		221.70000		875.00000 
 43692.65567		 305.27265			43387.38302		68.12000		324.00000 
 43692.65567		 654.70124			43037.95443		221.70000		875.00000 
 43692.65567		 305.27265			43387.38302		68.12000		324.00000 
 43692.65567		 654.70124			43037.95443		221.70000		875.00000 
 43692.65567		 305.27265			43387.38302		68.12000		324.00000 
 43692.65567		 654.70124			43037.95443		221.70000		875.00000 
 43692.65567		 305.27265			43387.38302		68.12000		324.00000 
 43692.65567		 654.70124			43037.95443		221.70000		875.00000 
 43692.65567		 305.27265			43387.38302		68.12000		324.00000 
 43692.65567		 654.70124			43037.95443		221.70000		875.00000 
 43692.65567		 305.27265			43387.38302		68.12000		324.00000 
 43692.65567		 654.70124			43037.95443		221.70000		875.00000 
 43692.65567		 305.27265			43387.38302		68.12000		324.00000 
 43692.65567		 654.70124			43037.95443		221.70000		875.00000 
 43692.65567		 305.27265			43387.38302		68.12000		324.00000 
 43692.65567		 654.70124			43037.95443		221.70000		875.00000 
 43692.65567		 305.27265			43387.38302		68.12000		324.00000 
 43692.65567		 654.70124			43037.95443		221.70000		875.00000 
 43692.65567		 305.27265			43387.38302		68.12000		324.00000 
 43692.65567		 654.70124			43037.95443		221.70000		875.00000 
 43692.65567		 305.27265			43387.38302		68.12000		324.00000 
 43692.65567		 654.70124			43037.95443		221.70000		875.00000 
 43692.65567		 305.27265			43387.38302		68.12000		324.00000 
 43692.65567		 654.70124			43037.95443		221.70000		875.00000 
 43692.65567		 305.27265			43387.38302		68.12000		324.00000 
 43692.65567		 654.70124			43037.95443		221.70000		875.00000 
 43692.65567		 305.27265			43387.38302		68.12000		324.00000 
 43692.65567		 654.70124			43037.95443		221.70000		875.00000 
 43692.65567		 305.27265			43387.38302		68.12000		324.00000 
 43692.65567		 654.70124			43037.95443		221.70000		875.00000 
 43692.65567		 305.27265			43387.38302		68.12000		324.00000 
 43692.65567		 654.70124			43037.95443		221.70000		875.00000 
 43692.65567		 305.27265			43387.38302		68.12000		324.00000 
 43692.65567		 654.70124			43037.95443		221.70000		875.00000 
 43692.65567		 305.27265			43387.38302		68.12000		324.00000 
 43692.65567		 654.70124			43037.95443		221.70000		875.00000 
 43692.65567		 305.27265			43387.38302		68.12000		324.00000 
 43692.65567		 654.70124			43037.95443		222.06000		875.00000 
 43692.65567		 305.27265			43387.38302		68.12000		324.00000 
 43692.65567		 654.70124			43037.95443		222.06000		875.00000 
 43692.65567		 305.27265			43387.38302		68.12000		324.00000 
 43692.65567		 654.70124			43037.95443		222.06000		875.00000 
 43692.65567		 305.27265			43387.38302		68.12000		324.00000 
 43692.65567		 654.70124			43037.95443		222.06000		875.00000 
 43692.65567		 305.27265			43387.38302		68.12000		324.00000 
 43692.65567		 654.70124			43037.95443		222.06000		875.00000 
 43692.65567		 305.27265			43387.38302		68.12000		324.00000 
 43692.65567		 654.70124			43037.95443		222.06000		875.00000 
 43692.65567		 305.27265			43387.38302		68.12000		324.00000 
 43692.65567		 654.70124			43037.95443		222.06000		875.00000 
 43692.65567		 305.27265			43387.38302		68.12000		324.00000 
 43692.65567		 654.70124			43037.95443		222.06000		875.00000 
 43692.65567		 305.27265			43387.38302		68.12000		324.00000 
 43692.65567		 654.70124			43037.95443		222.06000		875.00000 
 43692.65567		 305.27265			43387.38302		68.12000		324.00000 
 43692.65567		 654.70124			43037.95443		222.06000		875.00000 
 43692.65567		 305.27265			43387.38302		68.12000		324.00000 
 43692.65567		 654.70124			43037.95443		222.06000		875.00000 
 43692.65567		 305.27265			43387.38302		68.12000		324.00000 
 43692.65567		 654.70124			43037.95443		222.06000		875.00000 
 43692.65567		 305.27265			43387.38302		68.12000		324.00000 
 43692.65567		 654.70124			43037.95443		222.06000		875.00000 
 43692.65567		 305.27265			43387.38302		68.12000		324.00000 
 43692.65567		 654.70124			43037.95443		222.06000		875.00000 
 43692.65567		 305.27265			43387.38302		68.12000		324.00000 
 43692.65567		 654.70124			43037.95443		222.06000		875.00000 
 43692.65567		 305.27265			43387.38302		68.12000		324.00000 
 43692.65567		 654.70124			43037.95443		222.06000		875.00000 
 43692.65567		 305.27265			43387.38302		68.12000		324.00000 
 43692.65567		 654.70124			43037.95443		222.06000		875.00000 
 43692.65567		 305.27265			43387.38302		68.12000		324.00000 
 43692.65567		 654.70124			43037.95443		222.06000		875.00000 
 43692.65567		 305.27265			43387.38302		68.12000		324.00000 
 43692.65567		 654.70124			43037.95443		222.06000		875.00000 
 43692.65567		 305.27265			43387.38302		68.12000		324.00000 
 43692.65567		 654.70124			43037.95443		222.06000		875.00000 
 43692.65567		 305.27265			43387.38302		68.12000		324.00000 
 43692.65567		 654.70124			43037.95443		222.06000		875.00000 
 43692.65567		 305.27265			43387.38302		68.12000		324.00000 
 43692.65567		 654.70124			43037.95443		222.06000		875.00000 
 43692.65567		 305.27265			43387.38302		68.12000		324.00000 
 43692.65567		 654.70124			43037.95443		222.06000		875.00000 
 43692.65567		 305.27265			43387.38302		68.12000		324.00000 
 43692.65567		 654.70124			43037.95443		222.06000		875.00000 
 43692.65567		 305.27265			43387.38302		68.12000		324.00000 
 43692.65567		 654.70124			43037.95443		222.06000		875.00000 
 43692.65567		 305.27265			43387.38302		68.12000		324.00000 
 43692.65567		 654.70124			43037.95443		222.06000		875.00000 
 43692.65567		 305.27265			43387.38302		68.12000		324.00000 
 43692.65567		 654.70124			43037.95443		222.06000		875.00000 
 43692.65567		 305.27265			43387.38302		68.12000		324.00000 
 43692.65567		 654.70124			43037.95443		222.06000		875.00000 
 43692.65567		 305.27265			43387.38302		68.12000		324.00000 
 43692.65567		 615.55760			43077.09807		222.06000		875.00000 
 43692.65567		 305.27265			43387.38302		68.12000		324.00000 
 43692.65567		 576.41396			43116.24171		222.06000		875.00000 
 43692.65567		 305.27265			43387.38302		68.12000		324.00000 
 43692.65567		 537.27032			43155.38535		222.06000		875.00000 
 43692.65567		 305.27265			43387.38302		68.12000		324.00000 
 43692.65567		 537.27032			43155.38535		222.06000		875.00000 
 43692.65567		 305.27265			43387.38302		68.12000		324.00000 
 43692.65567		 537.27032			43155.38535		222.06000		875.00000 
 43692.65567		 305.27265			43387.38302		68.12000		324.00000 
 43692.65567		 537.27032			43155.38535		222.06000		875.00000 
 43692.65567		 305.27265			43387.38302		68.12000		324.00000 
 43692.65567		 537.27032			43155.38535		222.06000		875.00000 
 43692.65567		 305.27265			43387.38302		68.12000		324.00000 
 43692.65567		 537.27032			43155.38535		222.06000		875.00000 
 43692.65567		 305.27265			43387.38302		68.12000		324.00000 
 43692.65567		 537.27032			43155.38535		222.06000		875.00000 
 43692.65567		 305.27265			43387.38302		68.12000		324.00000 
 43692.65567		 537.27032			43155.38535		222.06000		875.00000 
 43692.65567		 305.27265			43387.38302		68.12000		324.00000 
 43692.65567		 537.27032			43155.38535		222.06000		875.00000 
 43692.65567		 305.27265			43387.38302		68.12000		324.00000 
 43692.65567		 537.27032			43155.38535		222.06000		875.00000 
 43692.65567		 305.27265			43387.38302		68.12000		324.00000 
 43692.65567		 537.27032			43155.38535		222.06000		875.00000 
 43692.65567		 305.27265			43387.38302		68.12000		324.00000 
 43692.65567		 537.27032			43155.38535		222.06000		875.00000 
 43692.65567		 305.27265			43387.38302		68.12000		324.00000 
 43692.65567		 537.27032			43155.38535		222.06000		875.00000 
 43692.65567		 305.27265			43387.38302		68.12000		324.00000 
 43692.65567		 537.27032			43155.38535		222.06000		875.00000 
 43692.65567		 305.27265			43387.38302		68.12000		324.00000 
 43692.65567		 537.27032			43155.38535		222.06000		875.00000 
 43692.65567		 305.27265			43387.38302		68.12000		324.00000 
 43692.65567		 537.27032			43155.38535		222.06000		875.00000 
 43692.65567		 305.27265			43387.38302		68.12000		324.00000 
 43692.65567		 537.27032			43155.38535		222.06000		875.00000 
 43692.65567		 305.27265			43387.38302		68.12000		324.00000 
 43692.65567		 537.27032			43155.38535		222.06000		875.00000 
 43692.65567		 305.27265			43387.38302		68.12000		324.00000 
 43692.65567		 537.27032			43155.38535		222.06000		875.00000 
 43692.65567		 305.27265			43387.38302		68.12000		324.00000 
 43692.65567		 537.27032			43155.38535		222.06000		875.00000 
 43692.65567		 305.27265			43387.38302		68.12000		324.00000 
 43692.65567		 525.81365			43166.84203		222.06000		875.00000 
 43692.65567		 305.27265			43387.38302		68.12000		324.00000 
 43692.65567		 525.81365			43166.84203		222.06000		875.00000 
 43692.65567		 261.35540			43431.30027		69.67800		324.00000 
 43692.65567		 261.35540			43431.30027		184.84200		875.00000 
 43692.65567		 261.35540			43431.30027		69.67800		324.00000 
