Memory Total (MiB) 	 Memory Used (MiB) 	    Memory Free (MiB) 	 Power Drawed (W) 	 Clocks (Mhz) 	 
 43692.65567		 261.35540			43431.30027		181.04400		875.00000 
 43692.65567		 261.35540			43431.30027		63.91600		324.00000 
 43692.65567		 261.35540			43431.30027		181.04400		875.00000 
 43692.65567		 261.35540			43431.30027		63.91600		324.00000 
 43692.65567		 261.35540			43431.30027		181.04400		875.00000 
 43692.65567		 261.35540			43431.30027		63.91600		324.00000 
 43692.65567		 261.35540			43431.30027		181.04400		875.00000 
 43692.65567		 261.35540			43431.30027		63.91600		324.00000 
 43692.65567		 261.35540			43431.30027		181.04400		875.00000 
 43692.65567		 261.35540			43431.30027		63.91600		324.00000 
 43692.65567		 261.35540			43431.30027		181.04400		875.00000 
 43692.65567		 261.35540			43431.30027		63.91600		324.00000 
 43692.65567		 261.35540			43431.30027		181.04400		875.00000 
 43692.65567		 261.35540			43431.30027		63.91600		324.00000 
 43692.65567		 261.35540			43431.30027		181.04400		875.00000 
 43692.65567		 261.35540			43431.30027		63.91600		324.00000 
 43692.65567		 261.35540			43431.30027		181.04400		875.00000 
 43692.65567		 261.35540			43431.30027		63.91600		324.00000 
 43692.65567		 261.35540			43431.30027		181.04400		875.00000 
 43692.65567		 261.35540			43431.30027		63.91600		324.00000 
 43692.65567		 261.35540			43431.30027		181.04400		875.00000 
 43692.65567		 261.35540			43431.30027		63.91600		324.00000 
 43692.65567		 261.35540			43431.30027		181.04400		875.00000 
 43692.65567		 261.35540			43431.30027		63.91600		324.00000 
 43692.65567		 261.35540			43431.30027		181.04400		875.00000 
 43692.65567		 261.35540			43431.30027		63.91600		324.00000 
 43692.65567		 261.35540			43431.30027		181.04400		875.00000 
 43692.65567		 261.35540			43431.30027		63.91600		324.00000 
 43692.65567		 261.35540			43431.30027		181.04400		875.00000 
 43692.65567		 261.35540			43431.30027		63.91600		324.00000 
 43692.65567		 261.35540			43431.30027		181.04400		875.00000 
 43692.65567		 261.35540			43431.30027		63.91600		324.00000 
 43692.65567		 261.35540			43431.30027		181.04400		875.00000 
 43692.65567		 261.35540			43431.30027		66.56000		324.00000 
 43692.65567		 261.35540			43431.30027		181.04400		875.00000 
 43692.65567		 261.35540			43431.30027		66.56000		324.00000 
 43692.65567		 265.17429			43427.48138		181.04400		875.00000 
 43692.65567		 261.35540			43431.30027		66.56000		324.00000 
 43692.65567		 265.17429			43427.48138		181.04400		875.00000 
 43692.65567		 261.35540			43431.30027		66.56000		324.00000 
 43692.65567		 272.81207			43419.84360		181.04400		875.00000 
 43692.65567		 261.35540			43431.30027		66.56000		324.00000 
 43692.65567		 272.81207			43419.84360		181.04400		875.00000 
 43692.65567		 261.35540			43431.30027		66.56000		324.00000 
 43692.65567		 272.81207			43419.84360		149.79000		875.00000 
 43692.65567		 265.17429			43427.48138		66.56000		324.00000 
 43692.65567		 272.81207			43419.84360		149.79000		875.00000 
 43692.65567		 265.17429			43427.48138		66.56000		324.00000 
 43692.65567		 272.81207			43419.84360		149.79000		875.00000 
 43692.65567		 272.81207			43419.84360		66.56000		324.00000 
 43692.65567		 272.81207			43419.84360		149.79000		875.00000 
 43692.65567		 272.81207			43419.84360		66.56000		324.00000 
 43692.65567		 272.81207			43419.84360		149.79000		875.00000 
 43692.65567		 272.81207			43419.84360		66.56000		324.00000 
 43692.65567		 272.81207			43419.84360		149.79000		875.00000 
 43692.65567		 272.81207			43419.84360		66.56000		324.00000 
 43692.65567		 305.27265			43387.38302		149.79000		875.00000 
 43692.65567		 305.27265			43387.38302		66.56000		324.00000 
 43692.65567		 305.27265			43387.38302		149.79000		875.00000 
 43692.65567		 305.27265			43387.38302		66.56000		324.00000 
 43692.65567		 305.27265			43387.38302		149.79000		875.00000 
 43692.65567		 305.27265			43387.38302		66.56000		324.00000 
 43692.65567		 305.27265			43387.38302		149.79000		875.00000 
 43692.65567		 305.27265			43387.38302		66.56000		324.00000 
 43692.65567		 305.27265			43387.38302		149.79000		875.00000 
 43692.65567		 305.27265			43387.38302		66.56000		324.00000 
 43692.65567		 310.04627			43382.60941		149.79000		875.00000 
 43692.65567		 305.27265			43387.38302		66.56000		324.00000 
 43692.65567		 311.00099			43381.65468		149.79000		875.00000 
 43692.65567		 305.27265			43387.38302		66.56000		324.00000 
 43692.65567		 311.00099			43381.65468		149.79000		875.00000 
 43692.65567		 305.27265			43387.38302		66.56000		324.00000 
 43692.65567		 311.00099			43381.65468		149.79000		875.00000 
 43692.65567		 305.27265			43387.38302		66.56000		324.00000 
 43692.65567		 311.00099			43381.65468		149.79000		875.00000 
 43692.65567		 305.27265			43387.38302		66.56000		324.00000 
 43692.65567		 311.00099			43381.65468		149.79000		875.00000 
 43692.65567		 305.27265			43387.38302		66.56000		324.00000 
 43692.65567		 311.00099			43381.65468		149.79000		875.00000 
 43692.65567		 305.27265			43387.38302		66.56000		324.00000 
 43692.65567		 311.00099			43381.65468		149.79000		875.00000 
 43692.65567		 305.27265			43387.38302		66.56000		324.00000 
 43692.65567		 311.00099			43381.65468		149.79000		875.00000 
 43692.65567		 305.27265			43387.38302		66.56000		324.00000 
 43692.65567		 311.00099			43381.65468		149.79000		875.00000 
 43692.65567		 305.27265			43387.38302		66.56000		324.00000 
 43692.65567		 311.00099			43381.65468		149.79000		875.00000 
 43692.65567		 305.27265			43387.38302		66.56000		324.00000 
 43692.65567		 311.00099			43381.65468		149.79000		875.00000 
 43692.65567		 305.27265			43387.38302		66.56000		324.00000 
 43692.65567		 311.00099			43381.65468		149.79000		875.00000 
 43692.65567		 305.27265			43387.38302		66.56000		324.00000 
 43692.65567		 311.00099			43381.65468		149.79000		875.00000 
 43692.65567		 305.27265			43387.38302		66.56000		324.00000 
 43692.65567		 311.00099			43381.65468		149.79000		875.00000 
 43692.65567		 305.27265			43387.38302		66.56000		324.00000 
 43692.65567		 311.00099			43381.65468		149.79000		875.00000 
 43692.65567		 305.27265			43387.38302		66.56000		324.00000 
 43692.65567		 311.00099			43381.65468		149.79000		875.00000 
 43692.65567		 305.27265			43387.38302		66.56000		324.00000 
 43692.65567		 311.00099			43381.65468		149.79000		875.00000 
 43692.65567		 305.27265			43387.38302		66.56000		324.00000 
 43692.65567		 311.00099			43381.65468		149.79000		875.00000 
 43692.65567		 305.27265			43387.38302		66.56000		324.00000 
 43692.65567		 311.00099			43381.65468		149.79000		875.00000 
 43692.65567		 305.27265			43387.38302		66.56000		324.00000 
 43692.65567		 311.00099			43381.65468		137.25200		875.00000 
 43692.65567		 305.27265			43387.38302		66.56000		324.00000 
 43692.65567		 311.00099			43381.65468		137.25200		875.00000 
 43692.65567		 305.27265			43387.38302		66.56000		324.00000 
 43692.65567		 311.00099			43381.65468		137.25200		875.00000 
 43692.65567		 305.27265			43387.38302		66.56000		324.00000 
 43692.65567		 311.00099			43381.65468		137.25200		875.00000 
 43692.65567		 305.27265			43387.38302		66.56000		324.00000 
 43692.65567		 311.00099			43381.65468		137.25200		875.00000 
 43692.65567		 305.27265			43387.38302		66.56000		324.00000 
 43692.65567		 311.00099			43381.65468		137.25200		875.00000 
 43692.65567		 305.27265			43387.38302		66.56000		324.00000 
 43692.65567		 311.00099			43381.65468		137.25200		875.00000 
 43692.65567		 305.27265			43387.38302		66.56000		324.00000 
 43692.65567		 311.00099			43381.65468		137.25200		875.00000 
 43692.65567		 305.27265			43387.38302		66.56000		324.00000 
 43692.65567		 311.00099			43381.65468		137.25200		875.00000 
 43692.65567		 305.27265			43387.38302		66.56000		324.00000 
 43692.65567		 311.00099			43381.65468		137.25200		875.00000 
 43692.65567		 305.27265			43387.38302		66.56000		324.00000 
 43692.65567		 311.00099			43381.65468		137.25200		875.00000 
 43692.65567		 305.27265			43387.38302		66.56000		324.00000 
 43692.65567		 311.00099			43381.65468		137.25200		875.00000 
 43692.65567		 305.27265			43387.38302		66.56000		324.00000 
 43692.65567		 311.00099			43381.65468		137.25200		875.00000 
 43692.65567		 305.27265			43387.38302		66.56000		324.00000 
 43692.65567		 311.00099			43381.65468		137.25200		875.00000 
 43692.65567		 305.27265			43387.38302		66.56000		324.00000 
 43692.65567		 311.00099			43381.65468		137.25200		875.00000 
 43692.65567		 305.27265			43387.38302		66.56000		324.00000 
 43692.65567		 311.00099			43381.65468		137.25200		875.00000 
 43692.65567		 305.27265			43387.38302		66.56000		324.00000 
 43692.65567		 311.00099			43381.65468		137.25200		875.00000 
 43692.65567		 305.27265			43387.38302		66.56000		324.00000 
 43692.65567		 311.00099			43381.65468		137.25200		875.00000 
 43692.65567		 305.27265			43387.38302		66.56000		324.00000 
 43692.65567		 311.00099			43381.65468		137.25200		875.00000 
 43692.65567		 305.27265			43387.38302		66.56000		324.00000 
 43692.65567		 311.00099			43381.65468		137.25200		875.00000 
 43692.65567		 305.27265			43387.38302		66.56000		324.00000 
 43692.65567		 311.00099			43381.65468		137.25200		875.00000 
 43692.65567		 305.27265			43387.38302		66.56000		324.00000 
 43692.65567		 311.00099			43381.65468		137.25200		875.00000 
 43692.65567		 305.27265			43387.38302		66.56000		324.00000 
 43692.65567		 311.00099			43381.65468		137.25200		875.00000 
 43692.65567		 305.27265			43387.38302		66.56000		324.00000 
 43692.65567		 311.00099			43381.65468		137.25200		875.00000 
 43692.65567		 305.27265			43387.38302		66.56000		324.00000 
 43692.65567		 311.00099			43381.65468		137.25200		875.00000 
 43692.65567		 305.27265			43387.38302		66.56000		324.00000 
 43692.65567		 311.00099			43381.65468		137.25200		875.00000 
 43692.65567		 305.27265			43387.38302		66.56000		324.00000 
 43692.65567		 311.00099			43381.65468		137.25200		875.00000 
 43692.65567		 305.27265			43387.38302		66.56000		324.00000 
 43692.65567		 311.00099			43381.65468		137.25200		875.00000 
 43692.65567		 305.27265			43387.38302		66.56000		324.00000 
 43692.65567		 311.00099			43381.65468		137.25200		875.00000 
 43692.65567		 305.27265			43387.38302		66.56000		324.00000 
 43692.65567		 311.00099			43381.65468		137.25200		875.00000 
 43692.65567		 305.27265			43387.38302		66.56000		324.00000 
 43692.65567		 311.00099			43381.65468		137.25200		875.00000 
 43692.65567		 305.27265			43387.38302		66.56000		324.00000 
 43692.65567		 314.81988			43377.83579		132.31200		875.00000 
 43692.65567		 305.27265			43387.38302		66.56000		324.00000 
 43692.65567		 314.81988			43377.83579		132.31200		875.00000 
 43692.65567		 305.27265			43387.38302		66.56000		324.00000 
 43692.65567		 314.81988			43377.83579		132.31200		875.00000 
 43692.65567		 305.27265			43387.38302		66.56000		324.00000 
 43692.65567		 322.45767			43370.19801		132.31200		875.00000 
 43692.65567		 305.27265			43387.38302		66.56000		324.00000 
 43692.65567		 326.27656			43366.37912		132.31200		875.00000 
 43692.65567		 305.27265			43387.38302		66.56000		324.00000 
 43692.65567		 326.27656			43366.37912		132.31200		875.00000 
 43692.65567		 305.27265			43387.38302		66.56000		324.00000 
 43692.65567		 326.27656			43366.37912		132.31200		875.00000 
 43692.65567		 305.27265			43387.38302		66.56000		324.00000 
 43692.65567		 326.27656			43366.37912		132.31200		875.00000 
 43692.65567		 305.27265			43387.38302		66.56000		324.00000 
 43692.65567		 537.27032			43155.38535		132.31200		875.00000 
 43692.65567		 305.27265			43387.38302		66.56000		324.00000 
 43692.65567		 566.86673			43125.78894		132.31200		875.00000 
 43692.65567		 305.27265			43387.38302		66.56000		324.00000 
 43692.65567		 581.66494			43110.99073		132.31200		875.00000 
 43692.65567		 305.27265			43387.38302		66.56000		324.00000 
 43692.65567		 581.66494			43110.99073		132.31200		875.00000 
 43692.65567		 305.27265			43387.38302		66.56000		324.00000 
 43692.65567		 581.66494			43110.99073		132.31200		875.00000 
 43692.65567		 305.27265			43387.38302		66.56000		324.00000 
 43692.65567		 581.66494			43110.99073		132.31200		875.00000 
 43692.65567		 305.27265			43387.38302		66.56000		324.00000 
 43692.65567		 581.66494			43110.99073		132.31200		875.00000 
 43692.65567		 305.27265			43387.38302		66.56000		324.00000 
 43692.65567		 581.66494			43110.99073		132.31200		875.00000 
 43692.65567		 305.27265			43387.38302		66.56000		324.00000 
 43692.65567		 581.66494			43110.99073		132.31200		875.00000 
 43692.65567		 305.27265			43387.38302		66.56000		324.00000 
 43692.65567		 581.66494			43110.99073		132.31200		875.00000 
 43692.65567		 305.27265			43387.38302		66.56000		324.00000 
 43692.65567		 581.66494			43110.99073		132.31200		875.00000 
 43692.65567		 305.27265			43387.38302		66.56000		324.00000 
 43692.65567		 581.66494			43110.99073		132.31200		875.00000 
 43692.65567		 305.27265			43387.38302		66.56000		324.00000 
 43692.65567		 581.66494			43110.99073		132.31200		875.00000 
 43692.65567		 305.27265			43387.38302		66.56000		324.00000 
 43692.65567		 581.66494			43110.99073		132.31200		875.00000 
 43692.65567		 305.27265			43387.38302		66.56000		324.00000 
 43692.65567		 581.66494			43110.99073		132.31200		875.00000 
 43692.65567		 305.27265			43387.38302		66.56000		324.00000 
 43692.65567		 581.66494			43110.99073		132.31200		875.00000 
 43692.65567		 305.27265			43387.38302		66.56000		324.00000 
 43692.65567		 581.66494			43110.99073		132.31200		875.00000 
 43692.65567		 305.27265			43387.38302		66.56000		324.00000 
 43692.65567		 581.66494			43110.99073		132.31200		875.00000 
 43692.65567		 305.27265			43387.38302		66.56000		324.00000 
 43692.65567		 581.66494			43110.99073		132.31200		875.00000 
 43692.65567		 305.27265			43387.38302		66.56000		324.00000 
 43692.65567		 581.66494			43110.99073		132.31200		875.00000 
 43692.65567		 305.27265			43387.38302		66.56000		324.00000 
 43692.65567		 581.66494			43110.99073		132.31200		875.00000 
 43692.65567		 305.27265			43387.38302		66.56000		324.00000 
 43692.65567		 581.66494			43110.99073		132.31200		875.00000 
 43692.65567		 305.27265			43387.38302		66.56000		324.00000 
 43692.65567		 581.66494			43110.99073		132.31200		875.00000 
 43692.65567		 305.27265			43387.38302		66.56000		324.00000 
 43692.65567		 581.66494			43110.99073		132.31200		875.00000 
 43692.65567		 305.27265			43387.38302		66.56000		324.00000 
 43692.65567		 581.66494			43110.99073		132.31200		875.00000 
 43692.65567		 305.27265			43387.38302		66.56000		324.00000 
 43692.65567		 581.66494			43110.99073		132.31200		875.00000 
 43692.65567		 305.27265			43387.38302		66.56000		324.00000 
 43692.65567		 581.66494			43110.99073		132.31200		875.00000 
 43692.65567		 305.27265			43387.38302		66.56000		324.00000 
 43692.65567		 581.66494			43110.99073		132.31200		875.00000 
 43692.65567		 305.27265			43387.38302		66.56000		324.00000 
 43692.65567		 581.66494			43110.99073		132.31200		875.00000 
 43692.65567		 305.27265			43387.38302		66.56000		324.00000 
 43692.65567		 581.66494			43110.99073		132.31200		875.00000 
 43692.65567		 305.27265			43387.38302		66.56000		324.00000 
 43692.65567		 581.66494			43110.99073		132.31200		875.00000 
 43692.65567		 305.27265			43387.38302		66.56000		324.00000 
 43692.65567		 581.66494			43110.99073		132.31200		875.00000 
 43692.65567		 305.27265			43387.38302		66.56000		324.00000 
 43692.65567		 581.66494			43110.99073		132.31200		875.00000 
 43692.65567		 305.27265			43387.38302		66.56000		324.00000 
 43692.65567		 581.66494			43110.99073		132.31200		875.00000 
 43692.65567		 305.27265			43387.38302		66.56000		324.00000 
 43692.65567		 581.66494			43110.99073		132.31200		875.00000 
 43692.65567		 305.27265			43387.38302		66.56000		324.00000 
 43692.65567		 581.66494			43110.99073		132.31200		875.00000 
 43692.65567		 305.27265			43387.38302		66.56000		324.00000 
 43692.65567		 581.66494			43110.99073		132.31200		875.00000 
 43692.65567		 305.27265			43387.38302		66.56000		324.00000 
 43692.65567		 581.66494			43110.99073		132.31200		875.00000 
 43692.65567		 305.27265			43387.38302		66.56000		324.00000 
 43692.65567		 581.66494			43110.99073		132.31200		875.00000 
 43692.65567		 305.27265			43387.38302		66.56000		324.00000 
 43692.65567		 581.66494			43110.99073		132.31200		875.00000 
 43692.65567		 305.27265			43387.38302		66.56000		324.00000 
 43692.65567		 581.66494			43110.99073		132.31200		875.00000 
 43692.65567		 305.27265			43387.38302		66.56000		324.00000 
 43692.65567		 581.66494			43110.99073		132.31200		875.00000 
 43692.65567		 305.27265			43387.38302		66.56000		324.00000 
 43692.65567		 581.66494			43110.99073		132.31200		875.00000 
 43692.65567		 305.27265			43387.38302		66.56000		324.00000 
 43692.65567		 581.66494			43110.99073		132.31200		875.00000 
 43692.65567		 305.27265			43387.38302		66.56000		324.00000 
 43692.65567		 581.66494			43110.99073		132.31200		875.00000 
 43692.65567		 305.27265			43387.38302		66.56000		324.00000 
 43692.65567		 581.66494			43110.99073		132.31200		875.00000 
 43692.65567		 305.27265			43387.38302		66.56000		324.00000 
 43692.65567		 581.66494			43110.99073		132.31200		875.00000 
 43692.65567		 305.27265			43387.38302		66.56000		324.00000 
 43692.65567		 581.66494			43110.99073		132.31200		875.00000 
 43692.65567		 305.27265			43387.38302		66.56000		324.00000 
 43692.65567		 581.66494			43110.99073		132.31200		875.00000 
 43692.65567		 305.27265			43387.38302		66.56000		324.00000 
 43692.65567		 581.66494			43110.99073		132.31200		875.00000 
 43692.65567		 305.27265			43387.38302		66.56000		324.00000 
 43692.65567		 581.66494			43110.99073		173.33600		875.00000 
 43692.65567		 305.27265			43387.38302		66.56000		324.00000 
 43692.65567		 581.66494			43110.99073		173.33600		875.00000 
 43692.65567		 305.27265			43387.38302		66.56000		324.00000 
 43692.65567		 581.66494			43110.99073		173.33600		875.00000 
 43692.65567		 305.27265			43387.38302		66.56000		324.00000 
 43692.65567		 581.66494			43110.99073		173.33600		875.00000 
 43692.65567		 305.27265			43387.38302		66.56000		324.00000 
 43692.65567		 581.66494			43110.99073		173.33600		875.00000 
 43692.65567		 305.27265			43387.38302		66.56000		324.00000 
 43692.65567		 581.66494			43110.99073		173.33600		875.00000 
 43692.65567		 305.27265			43387.38302		66.56000		324.00000 
 43692.65567		 581.66494			43110.99073		173.33600		875.00000 
 43692.65567		 305.27265			43387.38302		66.56000		324.00000 
 43692.65567		 581.66494			43110.99073		173.33600		875.00000 
 43692.65567		 305.27265			43387.38302		66.56000		324.00000 
 43692.65567		 581.66494			43110.99073		173.33600		875.00000 
 43692.65567		 305.27265			43387.38302		66.56000		324.00000 
 43692.65567		 581.66494			43110.99073		173.33600		875.00000 
 43692.65567		 305.27265			43387.38302		66.56000		324.00000 
 43692.65567		 581.66494			43110.99073		173.33600		875.00000 
 43692.65567		 305.27265			43387.38302		66.56000		324.00000 
 43692.65567		 581.66494			43110.99073		173.33600		875.00000 
 43692.65567		 305.27265			43387.38302		66.56000		324.00000 
 43692.65567		 581.66494			43110.99073		173.33600		875.00000 
 43692.65567		 305.27265			43387.38302		66.56000		324.00000 
 43692.65567		 581.66494			43110.99073		173.33600		875.00000 
 43692.65567		 305.27265			43387.38302		66.56000		324.00000 
 43692.65567		 581.66494			43110.99073		173.33600		875.00000 
 43692.65567		 305.27265			43387.38302		66.56000		324.00000 
 43692.65567		 581.66494			43110.99073		173.33600		875.00000 
 43692.65567		 305.27265			43387.38302		66.56000		324.00000 
 43692.65567		 581.66494			43110.99073		173.33600		875.00000 
 43692.65567		 305.27265			43387.38302		66.56000		324.00000 
 43692.65567		 581.66494			43110.99073		173.33600		875.00000 
 43692.65567		 305.27265			43387.38302		66.56000		324.00000 
 43692.65567		 581.66494			43110.99073		173.33600		875.00000 
 43692.65567		 305.27265			43387.38302		66.56000		324.00000 
 43692.65567		 581.66494			43110.99073		173.33600		875.00000 
 43692.65567		 305.27265			43387.38302		66.56000		324.00000 
 43692.65567		 581.66494			43110.99073		173.33600		875.00000 
 43692.65567		 305.27265			43387.38302		66.56000		324.00000 
 43692.65567		 581.66494			43110.99073		173.33600		875.00000 
 43692.65567		 305.27265			43387.38302		66.56000		324.00000 
 43692.65567		 581.66494			43110.99073		173.33600		875.00000 
 43692.65567		 305.27265			43387.38302		66.56000		324.00000 
 43692.65567		 581.66494			43110.99073		173.33600		875.00000 
 43692.65567		 305.27265			43387.38302		66.56000		324.00000 
 43692.65567		 581.66494			43110.99073		173.33600		875.00000 
 43692.65567		 305.27265			43387.38302		66.56000		324.00000 
 43692.65567		 581.66494			43110.99073		173.33600		875.00000 
 43692.65567		 305.27265			43387.38302		66.56000		324.00000 
 43692.65567		 581.66494			43110.99073		173.33600		875.00000 
 43692.65567		 305.27265			43387.38302		66.56000		324.00000 
 43692.65567		 581.66494			43110.99073		173.33600		875.00000 
 43692.65567		 305.27265			43387.38302		66.56000		324.00000 
 43692.65567		 581.66494			43110.99073		173.33600		875.00000 
 43692.65567		 305.27265			43387.38302		66.56000		324.00000 
 43692.65567		 581.66494			43110.99073		173.33600		875.00000 
 43692.65567		 305.27265			43387.38302		66.56000		324.00000 
 43692.65567		 581.66494			43110.99073		173.33600		875.00000 
 43692.65567		 305.27265			43387.38302		66.56000		324.00000 
 43692.65567		 581.66494			43110.99073		173.33600		875.00000 
 43692.65567		 305.27265			43387.38302		66.56000		324.00000 
 43692.65567		 581.66494			43110.99073		173.33600		875.00000 
 43692.65567		 305.27265			43387.38302		66.56000		324.00000 
 43692.65567		 581.66494			43110.99073		173.33600		875.00000 
 43692.65567		 305.27265			43387.38302		66.56000		324.00000 
 43692.65567		 581.66494			43110.99073		173.33600		875.00000 
 43692.65567		 305.27265			43387.38302		66.56000		324.00000 
 43692.65567		 581.66494			43110.99073		173.33600		875.00000 
 43692.65567		 305.27265			43387.38302		66.56000		324.00000 
 43692.65567		 581.66494			43110.99073		173.33600		875.00000 
 43692.65567		 305.27265			43387.38302		66.56000		324.00000 
 43692.65567		 581.66494			43110.99073		173.33600		875.00000 
 43692.65567		 305.27265			43387.38302		66.56000		324.00000 
 43692.65567		 581.66494			43110.99073		173.33600		875.00000 
 43692.65567		 305.27265			43387.38302		66.56000		324.00000 
 43692.65567		 581.66494			43110.99073		173.33600		875.00000 
 43692.65567		 305.27265			43387.38302		66.56000		324.00000 
 43692.65567		 581.66494			43110.99073		173.33600		875.00000 
 43692.65567		 305.27265			43387.38302		66.56000		324.00000 
 43692.65567		 581.66494			43110.99073		173.33600		875.00000 
 43692.65567		 305.27265			43387.38302		66.56000		324.00000 
 43692.65567		 581.66494			43110.99073		173.33600		875.00000 
 43692.65567		 305.27265			43387.38302		66.56000		324.00000 
 43692.65567		 581.66494			43110.99073		173.33600		875.00000 
 43692.65567		 305.27265			43387.38302		66.56000		324.00000 
 43692.65567		 581.66494			43110.99073		173.33600		875.00000 
 43692.65567		 305.27265			43387.38302		66.56000		324.00000 
 43692.65567		 581.66494			43110.99073		173.33600		875.00000 
 43692.65567		 305.27265			43387.38302		66.56000		324.00000 
 43692.65567		 581.66494			43110.99073		173.33600		875.00000 
 43692.65567		 305.27265			43387.38302		66.56000		324.00000 
 43692.65567		 581.66494			43110.99073		173.33600		875.00000 
 43692.65567		 305.27265			43387.38302		66.56000		324.00000 
 43692.65567		 581.66494			43110.99073		173.33600		875.00000 
 43692.65567		 305.27265			43387.38302		66.56000		324.00000 
 43692.65567		 581.66494			43110.99073		173.33600		875.00000 
 43692.65567		 305.27265			43387.38302		66.56000		324.00000 
 43692.65567		 581.66494			43110.99073		173.33600		875.00000 
 43692.65567		 305.27265			43387.38302		66.56000		324.00000 
 43692.65567		 581.66494			43110.99073		173.33600		875.00000 
 43692.65567		 305.27265			43387.38302		66.56000		324.00000 
 43692.65567		 581.66494			43110.99073		173.33600		875.00000 
 43692.65567		 305.27265			43387.38302		66.56000		324.00000 
 43692.65567		 581.66494			43110.99073		173.33600		875.00000 
 43692.65567		 305.27265			43387.38302		66.56000		324.00000 
 43692.65567		 581.66494			43110.99073		173.33600		875.00000 
 43692.65567		 305.27265			43387.38302		66.56000		324.00000 
 43692.65567		 581.66494			43110.99073		173.33600		875.00000 
 43692.65567		 305.27265			43387.38302		66.56000		324.00000 
 43692.65567		 581.66494			43110.99073		173.33600		875.00000 
 43692.65567		 305.27265			43387.38302		66.56000		324.00000 
 43692.65567		 581.66494			43110.99073		173.33600		875.00000 
 43692.65567		 305.27265			43387.38302		66.56000		324.00000 
 43692.65567		 581.66494			43110.99073		173.33600		875.00000 
 43692.65567		 305.27265			43387.38302		66.56000		324.00000 
 43692.65567		 581.66494			43110.99073		173.33600		875.00000 
 43692.65567		 305.27265			43387.38302		66.56000		324.00000 
 43692.65567		 581.66494			43110.99073		173.33600		875.00000 
 43692.65567		 305.27265			43387.38302		66.56000		324.00000 
 43692.65567		 581.66494			43110.99073		173.33600		875.00000 
 43692.65567		 305.27265			43387.38302		66.56000		324.00000 
 43692.65567		 581.66494			43110.99073		173.33600		875.00000 
 43692.65567		 305.27265			43387.38302		66.56000		324.00000 
 43692.65567		 581.66494			43110.99073		173.33600		875.00000 
 43692.65567		 305.27265			43387.38302		66.56000		324.00000 
 43692.65567		 581.66494			43110.99073		173.33600		875.00000 
 43692.65567		 305.27265			43387.38302		66.56000		324.00000 
 43692.65567		 581.66494			43110.99073		198.40400		875.00000 
 43692.65567		 305.27265			43387.38302		66.56000		324.00000 
 43692.65567		 581.66494			43110.99073		198.40400		875.00000 
 43692.65567		 305.27265			43387.38302		66.56000		324.00000 
 43692.65567		 581.66494			43110.99073		198.40400		875.00000 
 43692.65567		 305.27265			43387.38302		66.56000		324.00000 
 43692.65567		 581.66494			43110.99073		198.40400		875.00000 
 43692.65567		 305.27265			43387.38302		66.56000		324.00000 
 43692.65567		 581.66494			43110.99073		198.40400		875.00000 
 43692.65567		 305.27265			43387.38302		66.56000		324.00000 
 43692.65567		 581.66494			43110.99073		198.40400		875.00000 
 43692.65567		 305.27265			43387.38302		66.56000		324.00000 
 43692.65567		 581.66494			43110.99073		198.40400		875.00000 
 43692.65567		 305.27265			43387.38302		66.56000		324.00000 
 43692.65567		 581.66494			43110.99073		198.40400		875.00000 
 43692.65567		 305.27265			43387.38302		66.56000		324.00000 
 43692.65567		 581.66494			43110.99073		198.40400		875.00000 
 43692.65567		 305.27265			43387.38302		66.56000		324.00000 
 43692.65567		 581.66494			43110.99073		198.40400		875.00000 
 43692.65567		 305.27265			43387.38302		66.56000		324.00000 
 43692.65567		 581.66494			43110.99073		198.40400		875.00000 
 43692.65567		 305.27265			43387.38302		66.56000		324.00000 
 43692.65567		 581.66494			43110.99073		198.40400		875.00000 
 43692.65567		 305.27265			43387.38302		66.56000		324.00000 
 43692.65567		 581.66494			43110.99073		198.40400		875.00000 
 43692.65567		 305.27265			43387.38302		66.56000		324.00000 
 43692.65567		 581.66494			43110.99073		198.40400		875.00000 
 43692.65567		 305.27265			43387.38302		66.56000		324.00000 
 43692.65567		 581.66494			43110.99073		198.40400		875.00000 
 43692.65567		 305.27265			43387.38302		66.56000		324.00000 
 43692.65567		 581.66494			43110.99073		198.40400		875.00000 
 43692.65567		 305.27265			43387.38302		66.56000		324.00000 
 43692.65567		 581.66494			43110.99073		198.40400		875.00000 
 43692.65567		 305.27265			43387.38302		66.56000		324.00000 
 43692.65567		 581.66494			43110.99073		198.40400		875.00000 
 43692.65567		 305.27265			43387.38302		66.56000		324.00000 
 43692.65567		 581.66494			43110.99073		198.40400		875.00000 
 43692.65567		 305.27265			43387.38302		66.56000		324.00000 
 43692.65567		 581.66494			43110.99073		198.40400		875.00000 
 43692.65567		 305.27265			43387.38302		66.56000		324.00000 
 43692.65567		 581.66494			43110.99073		198.40400		875.00000 
 43692.65567		 305.27265			43387.38302		66.56000		324.00000 
 43692.65567		 581.66494			43110.99073		198.40400		875.00000 
 43692.65567		 305.27265			43387.38302		66.56000		324.00000 
 43692.65567		 581.66494			43110.99073		198.40400		875.00000 
 43692.65567		 305.27265			43387.38302		66.56000		324.00000 
 43692.65567		 581.66494			43110.99073		198.40400		875.00000 
 43692.65567		 305.27265			43387.38302		66.56000		324.00000 
 43692.65567		 581.66494			43110.99073		198.40400		875.00000 
 43692.65567		 305.27265			43387.38302		66.56000		324.00000 
 43692.65567		 581.66494			43110.99073		198.40400		875.00000 
 43692.65567		 305.27265			43387.38302		66.56000		324.00000 
 43692.65567		 581.66494			43110.99073		198.40400		875.00000 
 43692.65567		 305.27265			43387.38302		66.56000		324.00000 
 43692.65567		 581.66494			43110.99073		198.40400		875.00000 
 43692.65567		 305.27265			43387.38302		66.56000		324.00000 
 43692.65567		 581.66494			43110.99073		198.40400		875.00000 
 43692.65567		 305.27265			43387.38302		66.56000		324.00000 
 43692.65567		 581.66494			43110.99073		198.40400		875.00000 
 43692.65567		 305.27265			43387.38302		66.56000		324.00000 
 43692.65567		 581.66494			43110.99073		198.40400		875.00000 
 43692.65567		 305.27265			43387.38302		66.56000		324.00000 
 43692.65567		 581.66494			43110.99073		198.40400		875.00000 
 43692.65567		 305.27265			43387.38302		66.56000		324.00000 
 43692.65567		 581.66494			43110.99073		198.40400		875.00000 
 43692.65567		 305.27265			43387.38302		66.56000		324.00000 
 43692.65567		 581.66494			43110.99073		198.40400		875.00000 
 43692.65567		 305.27265			43387.38302		66.56000		324.00000 
 43692.65567		 581.66494			43110.99073		198.40400		875.00000 
 43692.65567		 305.27265			43387.38302		66.56000		324.00000 
 43692.65567		 581.66494			43110.99073		198.40400		875.00000 
 43692.65567		 305.27265			43387.38302		66.56000		324.00000 
 43692.65567		 581.66494			43110.99073		198.40400		875.00000 
 43692.65567		 305.27265			43387.38302		66.56000		324.00000 
 43692.65567		 581.66494			43110.99073		198.40400		875.00000 
 43692.65567		 305.27265			43387.38302		66.56000		324.00000 
 43692.65567		 581.66494			43110.99073		198.40400		875.00000 
 43692.65567		 305.27265			43387.38302		66.56000		324.00000 
 43692.65567		 581.66494			43110.99073		198.40400		875.00000 
 43692.65567		 305.27265			43387.38302		66.56000		324.00000 
 43692.65567		 581.66494			43110.99073		198.40400		875.00000 
 43692.65567		 305.27265			43387.38302		66.56000		324.00000 
 43692.65567		 581.66494			43110.99073		198.40400		875.00000 
 43692.65567		 305.27265			43387.38302		66.56000		324.00000 
 43692.65567		 581.66494			43110.99073		198.40400		875.00000 
 43692.65567		 305.27265			43387.38302		66.56000		324.00000 
 43692.65567		 581.66494			43110.99073		198.40400		875.00000 
 43692.65567		 305.27265			43387.38302		66.56000		324.00000 
 43692.65567		 581.66494			43110.99073		198.40400		875.00000 
 43692.65567		 305.27265			43387.38302		66.56000		324.00000 
 43692.65567		 581.66494			43110.99073		198.40400		875.00000 
 43692.65567		 305.27265			43387.38302		66.56000		324.00000 
 43692.65567		 581.66494			43110.99073		198.40400		875.00000 
 43692.65567		 305.27265			43387.38302		66.56000		324.00000 
 43692.65567		 581.66494			43110.99073		198.40400		875.00000 
 43692.65567		 305.27265			43387.38302		66.56000		324.00000 
 43692.65567		 581.66494			43110.99073		198.40400		875.00000 
 43692.65567		 305.27265			43387.38302		66.56000		324.00000 
 43692.65567		 581.66494			43110.99073		198.40400		875.00000 
 43692.65567		 305.27265			43387.38302		66.56000		324.00000 
 43692.65567		 581.66494			43110.99073		198.40400		875.00000 
 43692.65567		 305.27265			43387.38302		66.56000		324.00000 
 43692.65567		 581.66494			43110.99073		198.40400		875.00000 
 43692.65567		 305.27265			43387.38302		66.56000		324.00000 
 43692.65567		 581.66494			43110.99073		198.40400		875.00000 
 43692.65567		 305.27265			43387.38302		66.56000		324.00000 
 43692.65567		 581.66494			43110.99073		198.40400		875.00000 
 43692.65567		 305.27265			43387.38302		66.56000		324.00000 
 43692.65567		 581.66494			43110.99073		198.40400		875.00000 
 43692.65567		 305.27265			43387.38302		66.56000		324.00000 
 43692.65567		 581.66494			43110.99073		198.40400		875.00000 
 43692.65567		 305.27265			43387.38302		66.56000		324.00000 
 43692.65567		 581.66494			43110.99073		198.40400		875.00000 
 43692.65567		 305.27265			43387.38302		66.56000		324.00000 
 43692.65567		 581.66494			43110.99073		198.40400		875.00000 
 43692.65567		 305.27265			43387.38302		66.56000		324.00000 
 43692.65567		 581.66494			43110.99073		198.40400		875.00000 
 43692.65567		 305.27265			43387.38302		66.56000		324.00000 
 43692.65567		 581.66494			43110.99073		198.40400		875.00000 
 43692.65567		 305.27265			43387.38302		66.56000		324.00000 
 43692.65567		 581.66494			43110.99073		198.40400		875.00000 
 43692.65567		 305.27265			43387.38302		66.56000		324.00000 
 43692.65567		 581.66494			43110.99073		198.40400		875.00000 
 43692.65567		 305.27265			43387.38302		66.56000		324.00000 
 43692.65567		 581.66494			43110.99073		198.40400		875.00000 
 43692.65567		 305.27265			43387.38302		66.56000		324.00000 
 43692.65567		 581.66494			43110.99073		198.40400		875.00000 
 43692.65567		 305.27265			43387.38302		66.56000		324.00000 
 43692.65567		 581.66494			43110.99073		207.38000		875.00000 
 43692.65567		 305.27265			43387.38302		66.56000		324.00000 
 43692.65567		 581.66494			43110.99073		207.38000		875.00000 
 43692.65567		 305.27265			43387.38302		66.56000		324.00000 
 43692.65567		 581.66494			43110.99073		207.38000		875.00000 
 43692.65567		 305.27265			43387.38302		66.56000		324.00000 
 43692.65567		 537.27032			43155.38535		207.38000		875.00000 
 43692.65567		 305.27265			43387.38302		66.56000		324.00000 
 43692.65567		 537.27032			43155.38535		207.38000		875.00000 
 43692.65567		 305.27265			43387.38302		66.56000		324.00000 
 43692.65567		 537.27032			43155.38535		207.38000		875.00000 
 43692.65567		 305.27265			43387.38302		66.56000		324.00000 
 43692.65567		 537.27032			43155.38535		207.38000		875.00000 
 43692.65567		 305.27265			43387.38302		66.56000		324.00000 
 43692.65567		 537.27032			43155.38535		207.38000		875.00000 
 43692.65567		 305.27265			43387.38302		66.56000		324.00000 
 43692.65567		 537.27032			43155.38535		207.38000		875.00000 
 43692.65567		 305.27265			43387.38302		66.56000		324.00000 
 43692.65567		 537.27032			43155.38535		207.38000		875.00000 
 43692.65567		 305.27265			43387.38302		66.56000		324.00000 
 43692.65567		 537.27032			43155.38535		207.38000		875.00000 
 43692.65567		 305.27265			43387.38302		66.56000		324.00000 
 43692.65567		 537.27032			43155.38535		207.38000		875.00000 
 43692.65567		 305.27265			43387.38302		66.56000		324.00000 
 43692.65567		 537.27032			43155.38535		207.38000		875.00000 
 43692.65567		 305.27265			43387.38302		66.56000		324.00000 
 43692.65567		 537.27032			43155.38535		207.38000		875.00000 
 43692.65567		 305.27265			43387.38302		66.56000		324.00000 
 43692.65567		 537.27032			43155.38535		207.38000		875.00000 
 43692.65567		 305.27265			43387.38302		66.56000		324.00000 
 43692.65567		 537.27032			43155.38535		207.38000		875.00000 
 43692.65567		 305.27265			43387.38302		66.56000		324.00000 
 43692.65567		 537.27032			43155.38535		207.38000		875.00000 
 43692.65567		 305.27265			43387.38302		66.56000		324.00000 
 43692.65567		 537.27032			43155.38535		207.38000		875.00000 
 43692.65567		 305.27265			43387.38302		66.56000		324.00000 
 43692.65567		 537.27032			43155.38535		207.38000		875.00000 
 43692.65567		 305.27265			43387.38302		66.56000		324.00000 
 43692.65567		 537.27032			43155.38535		207.38000		875.00000 
 43692.65567		 305.27265			43387.38302		66.56000		324.00000 
 43692.65567		 537.27032			43155.38535		207.38000		875.00000 
 43692.65567		 305.27265			43387.38302		66.56000		324.00000 
 43692.65567		 537.27032			43155.38535		207.38000		875.00000 
 43692.65567		 305.27265			43387.38302		66.56000		324.00000 
 43692.65567		 537.27032			43155.38535		207.38000		875.00000 
 43692.65567		 305.27265			43387.38302		66.56000		324.00000 
 43692.65567		 529.63254			43163.02313		207.38000		875.00000 
 43692.65567		 305.27265			43387.38302		66.56000		324.00000 
 43692.65567		 525.81365			43166.84203		207.38000		875.00000 
 43692.65567		 305.27265			43387.38302		66.56000		324.00000 
 43692.65567		 525.81365			43166.84203		207.38000		875.00000 
 43692.65567		 261.35540			43431.30027		66.56000		324.00000 
