Memory Total (MiB) 	 Memory Used (MiB) 	    Memory Free (MiB) 	 Power Drawed (W) 	 Clocks (Mhz) 	 
 43692.65567		 261.35540			43431.30027		159.00400		875.00000 
 43692.65567		 261.35540			43431.30027		69.65600		324.00000 
 43692.65567		 261.35540			43431.30027		159.00400		875.00000 
 43692.65567		 261.35540			43431.30027		69.65600		324.00000 
 43692.65567		 261.35540			43431.30027		159.00400		875.00000 
 43692.65567		 261.35540			43431.30027		69.65600		324.00000 
 43692.65567		 261.35540			43431.30027		159.00400		875.00000 
 43692.65567		 261.35540			43431.30027		69.65600		324.00000 
 43692.65567		 261.35540			43431.30027		159.00400		875.00000 
 43692.65567		 261.35540			43431.30027		69.65600		324.00000 
 43692.65567		 261.35540			43431.30027		159.00400		875.00000 
 43692.65567		 261.35540			43431.30027		69.65600		324.00000 
 43692.65567		 261.35540			43431.30027		159.00400		875.00000 
 43692.65567		 261.35540			43431.30027		69.65600		324.00000 
 43692.65567		 261.35540			43431.30027		159.00400		875.00000 
 43692.65567		 261.35540			43431.30027		69.65600		324.00000 
 43692.65567		 261.35540			43431.30027		159.00400		875.00000 
 43692.65567		 261.35540			43431.30027		69.65600		324.00000 
 43692.65567		 261.35540			43431.30027		159.00400		875.00000 
 43692.65567		 261.35540			43431.30027		69.65600		324.00000 
 43692.65567		 261.35540			43431.30027		159.00400		875.00000 
 43692.65567		 261.35540			43431.30027		69.65600		324.00000 
 43692.65567		 261.35540			43431.30027		159.00400		875.00000 
 43692.65567		 261.35540			43431.30027		69.65600		324.00000 
 43692.65567		 261.35540			43431.30027		159.00400		875.00000 
 43692.65567		 261.35540			43431.30027		69.65600		324.00000 
 43692.65567		 261.35540			43431.30027		159.00400		875.00000 
 43692.65567		 261.35540			43431.30027		69.65600		324.00000 
 43692.65567		 261.35540			43431.30027		159.00400		875.00000 
 43692.65567		 261.35540			43431.30027		69.65600		324.00000 
 43692.65567		 261.35540			43431.30027		159.00400		875.00000 
 43692.65567		 261.35540			43431.30027		69.65600		324.00000 
 43692.65567		 261.35540			43431.30027		159.00400		875.00000 
 43692.65567		 261.35540			43431.30027		69.65600		324.00000 
 43692.65567		 265.17429			43427.48138		159.00400		875.00000 
 43692.65567		 261.35540			43431.30027		69.65600		324.00000 
 43692.65567		 265.17429			43427.48138		159.00400		875.00000 
 43692.65567		 261.35540			43431.30027		69.65600		324.00000 
 43692.65567		 272.81207			43419.84360		159.00400		875.00000 
 43692.65567		 261.35540			43431.30027		69.65600		324.00000 
 43692.65567		 272.81207			43419.84360		159.00400		875.00000 
 43692.65567		 261.35540			43431.30027		69.65600		324.00000 
 43692.65567		 272.81207			43419.84360		159.00400		875.00000 
 43692.65567		 265.17429			43427.48138		69.65600		324.00000 
 43692.65567		 272.81207			43419.84360		159.00400		875.00000 
 43692.65567		 265.17429			43427.48138		69.65600		324.00000 
 43692.65567		 272.81207			43419.84360		159.00400		875.00000 
 43692.65567		 265.17429			43427.48138		69.65600		324.00000 
 43692.65567		 272.81207			43419.84360		159.00400		875.00000 
 43692.65567		 272.81207			43419.84360		69.65600		324.00000 
 43692.65567		 272.81207			43419.84360		159.00400		875.00000 
 43692.65567		 272.81207			43419.84360		69.65600		324.00000 
 43692.65567		 272.81207			43419.84360		159.00400		875.00000 
 43692.65567		 272.81207			43419.84360		69.65600		324.00000 
 43692.65567		 305.27265			43387.38302		159.00400		875.00000 
 43692.65567		 305.27265			43387.38302		69.65600		324.00000 
 43692.65567		 305.27265			43387.38302		159.00400		875.00000 
 43692.65567		 305.27265			43387.38302		69.65600		324.00000 
 43692.65567		 305.27265			43387.38302		142.59000		875.00000 
 43692.65567		 305.27265			43387.38302		69.65600		324.00000 
 43692.65567		 305.27265			43387.38302		142.59000		875.00000 
 43692.65567		 305.27265			43387.38302		69.65600		324.00000 
 43692.65567		 305.27265			43387.38302		142.59000		875.00000 
 43692.65567		 305.27265			43387.38302		69.65600		324.00000 
 43692.65567		 309.09154			43383.56413		142.59000		875.00000 
 43692.65567		 305.27265			43387.38302		69.65600		324.00000 
 43692.65567		 310.52363			43382.13204		142.59000		875.00000 
 43692.65567		 305.27265			43387.38302		69.65600		324.00000 
 43692.65567		 311.00099			43381.65468		142.59000		875.00000 
 43692.65567		 305.27265			43387.38302		69.65600		324.00000 
 43692.65567		 311.00099			43381.65468		142.59000		875.00000 
 43692.65567		 305.27265			43387.38302		69.65600		324.00000 
 43692.65567		 311.00099			43381.65468		142.59000		875.00000 
 43692.65567		 305.27265			43387.38302		69.65600		324.00000 
 43692.65567		 311.00099			43381.65468		142.59000		875.00000 
 43692.65567		 305.27265			43387.38302		69.65600		324.00000 
 43692.65567		 311.00099			43381.65468		142.59000		875.00000 
 43692.65567		 305.27265			43387.38302		69.65600		324.00000 
 43692.65567		 311.00099			43381.65468		142.59000		875.00000 
 43692.65567		 305.27265			43387.38302		69.65600		324.00000 
 43692.65567		 311.00099			43381.65468		142.59000		875.00000 
 43692.65567		 305.27265			43387.38302		69.65600		324.00000 
 43692.65567		 311.00099			43381.65468		142.59000		875.00000 
 43692.65567		 305.27265			43387.38302		69.65600		324.00000 
 43692.65567		 311.00099			43381.65468		142.59000		875.00000 
 43692.65567		 305.27265			43387.38302		69.65600		324.00000 
 43692.65567		 311.00099			43381.65468		142.59000		875.00000 
 43692.65567		 305.27265			43387.38302		69.65600		324.00000 
 43692.65567		 311.00099			43381.65468		142.59000		875.00000 
 43692.65567		 305.27265			43387.38302		69.65600		324.00000 
 43692.65567		 311.00099			43381.65468		142.59000		875.00000 
 43692.65567		 305.27265			43387.38302		69.65600		324.00000 
 43692.65567		 311.00099			43381.65468		142.59000		875.00000 
 43692.65567		 305.27265			43387.38302		69.65600		324.00000 
 43692.65567		 311.00099			43381.65468		142.59000		875.00000 
 43692.65567		 305.27265			43387.38302		69.65600		324.00000 
 43692.65567		 311.00099			43381.65468		142.59000		875.00000 
 43692.65567		 305.27265			43387.38302		69.65600		324.00000 
 43692.65567		 311.00099			43381.65468		142.59000		875.00000 
 43692.65567		 305.27265			43387.38302		69.65600		324.00000 
 43692.65567		 311.00099			43381.65468		142.59000		875.00000 
 43692.65567		 305.27265			43387.38302		69.65600		324.00000 
 43692.65567		 311.00099			43381.65468		142.59000		875.00000 
 43692.65567		 305.27265			43387.38302		69.65600		324.00000 
 43692.65567		 311.00099			43381.65468		142.59000		875.00000 
 43692.65567		 305.27265			43387.38302		69.65600		324.00000 
 43692.65567		 311.00099			43381.65468		142.59000		875.00000 
 43692.65567		 305.27265			43387.38302		69.65600		324.00000 
 43692.65567		 311.00099			43381.65468		142.59000		875.00000 
 43692.65567		 305.27265			43387.38302		69.65600		324.00000 
 43692.65567		 311.00099			43381.65468		142.59000		875.00000 
 43692.65567		 305.27265			43387.38302		69.65600		324.00000 
 43692.65567		 311.00099			43381.65468		142.59000		875.00000 
 43692.65567		 305.27265			43387.38302		69.65600		324.00000 
 43692.65567		 311.00099			43381.65468		142.59000		875.00000 
 43692.65567		 305.27265			43387.38302		69.65600		324.00000 
 43692.65567		 311.00099			43381.65468		142.59000		875.00000 
 43692.65567		 305.27265			43387.38302		69.65600		324.00000 
 43692.65567		 311.00099			43381.65468		142.59000		875.00000 
 43692.65567		 305.27265			43387.38302		69.65600		324.00000 
 43692.65567		 311.00099			43381.65468		142.59000		875.00000 
 43692.65567		 305.27265			43387.38302		69.65600		324.00000 
 43692.65567		 311.00099			43381.65468		136.21600		875.00000 
 43692.65567		 305.27265			43387.38302		69.65600		324.00000 
 43692.65567		 311.00099			43381.65468		136.21600		875.00000 
 43692.65567		 305.27265			43387.38302		69.65600		324.00000 
 43692.65567		 311.00099			43381.65468		136.21600		875.00000 
 43692.65567		 305.27265			43387.38302		69.65600		324.00000 
 43692.65567		 311.00099			43381.65468		136.21600		875.00000 
 43692.65567		 305.27265			43387.38302		69.65600		324.00000 
 43692.65567		 311.00099			43381.65468		136.21600		875.00000 
 43692.65567		 305.27265			43387.38302		69.65600		324.00000 
 43692.65567		 311.00099			43381.65468		136.21600		875.00000 
 43692.65567		 305.27265			43387.38302		69.65600		324.00000 
 43692.65567		 311.00099			43381.65468		136.21600		875.00000 
 43692.65567		 305.27265			43387.38302		69.65600		324.00000 
 43692.65567		 311.00099			43381.65468		136.21600		875.00000 
 43692.65567		 305.27265			43387.38302		69.65600		324.00000 
 43692.65567		 311.00099			43381.65468		136.21600		875.00000 
 43692.65567		 305.27265			43387.38302		69.65600		324.00000 
 43692.65567		 311.00099			43381.65468		136.21600		875.00000 
 43692.65567		 305.27265			43387.38302		69.65600		324.00000 
 43692.65567		 311.00099			43381.65468		136.21600		875.00000 
 43692.65567		 305.27265			43387.38302		69.65600		324.00000 
 43692.65567		 311.00099			43381.65468		136.21600		875.00000 
 43692.65567		 305.27265			43387.38302		69.65600		324.00000 
 43692.65567		 311.00099			43381.65468		136.21600		875.00000 
 43692.65567		 305.27265			43387.38302		69.65600		324.00000 
 43692.65567		 311.00099			43381.65468		136.21600		875.00000 
 43692.65567		 305.27265			43387.38302		69.65600		324.00000 
 43692.65567		 311.00099			43381.65468		136.21600		875.00000 
 43692.65567		 305.27265			43387.38302		69.65600		324.00000 
 43692.65567		 311.00099			43381.65468		136.21600		875.00000 
 43692.65567		 305.27265			43387.38302		69.65600		324.00000 
 43692.65567		 311.00099			43381.65468		136.21600		875.00000 
 43692.65567		 305.27265			43387.38302		69.65600		324.00000 
 43692.65567		 311.00099			43381.65468		136.21600		875.00000 
 43692.65567		 305.27265			43387.38302		69.65600		324.00000 
 43692.65567		 311.00099			43381.65468		136.21600		875.00000 
 43692.65567		 305.27265			43387.38302		69.65600		324.00000 
 43692.65567		 311.00099			43381.65468		136.21600		875.00000 
 43692.65567		 305.27265			43387.38302		69.65600		324.00000 
 43692.65567		 311.00099			43381.65468		136.21600		875.00000 
 43692.65567		 305.27265			43387.38302		69.65600		324.00000 
 43692.65567		 311.00099			43381.65468		136.21600		875.00000 
 43692.65567		 305.27265			43387.38302		69.65600		324.00000 
 43692.65567		 311.00099			43381.65468		136.21600		875.00000 
 43692.65567		 305.27265			43387.38302		69.65600		324.00000 
 43692.65567		 314.81988			43377.83579		136.21600		875.00000 
 43692.65567		 305.27265			43387.38302		69.65600		324.00000 
 43692.65567		 314.81988			43377.83579		136.21600		875.00000 
 43692.65567		 305.27265			43387.38302		69.65600		324.00000 
 43692.65567		 314.81988			43377.83579		136.21600		875.00000 
 43692.65567		 305.27265			43387.38302		69.65600		324.00000 
 43692.65567		 318.63877			43374.01690		136.21600		875.00000 
 43692.65567		 305.27265			43387.38302		69.65600		324.00000 
 43692.65567		 322.45767			43370.19801		136.21600		875.00000 
 43692.65567		 305.27265			43387.38302		69.65600		324.00000 
 43692.65567		 326.27656			43366.37912		136.21600		875.00000 
 43692.65567		 305.27265			43387.38302		69.65600		324.00000 
 43692.65567		 326.27656			43366.37912		136.21600		875.00000 
 43692.65567		 305.27265			43387.38302		69.65600		324.00000 
 43692.65567		 326.27656			43366.37912		136.21600		875.00000 
 43692.65567		 305.27265			43387.38302		69.65600		324.00000 
 43692.65567		 537.27032			43155.38535		136.21600		875.00000 
 43692.65567		 305.27265			43387.38302		69.65600		324.00000 
 43692.65567		 819.86831			42872.78737		136.21600		875.00000 
 43692.65567		 305.27265			43387.38302		69.65600		324.00000 
 43692.65567		 961.16730			42731.48837		136.21600		875.00000 
 43692.65567		 305.27265			43387.38302		69.65600		324.00000 
 43692.65567		 961.16730			42731.48837		135.90600		875.00000 
 43692.65567		 305.27265			43387.38302		69.65600		324.00000 
 43692.65567		 961.16730			42731.48837		135.90600		875.00000 
 43692.65567		 305.27265			43387.38302		69.65600		324.00000 
 43692.65567		 961.16730			42731.48837		135.90600		875.00000 
 43692.65567		 305.27265			43387.38302		69.65600		324.00000 
 43692.65567		 961.16730			42731.48837		135.90600		875.00000 
 43692.65567		 305.27265			43387.38302		69.65600		324.00000 
 43692.65567		 961.16730			42731.48837		135.90600		875.00000 
 43692.65567		 305.27265			43387.38302		69.65600		324.00000 
 43692.65567		 961.16730			42731.48837		135.90600		875.00000 
 43692.65567		 305.27265			43387.38302		69.65600		324.00000 
 43692.65567		 961.16730			42731.48837		135.90600		875.00000 
 43692.65567		 305.27265			43387.38302		69.65600		324.00000 
 43692.65567		 961.16730			42731.48837		135.90600		875.00000 
 43692.65567		 305.27265			43387.38302		69.65600		324.00000 
 43692.65567		 961.16730			42731.48837		135.90600		875.00000 
 43692.65567		 305.27265			43387.38302		69.65600		324.00000 
 43692.65567		 961.16730			42731.48837		135.90600		875.00000 
 43692.65567		 305.27265			43387.38302		69.65600		324.00000 
 43692.65567		 961.16730			42731.48837		135.90600		875.00000 
 43692.65567		 305.27265			43387.38302		69.65600		324.00000 
 43692.65567		 961.16730			42731.48837		135.90600		875.00000 
 43692.65567		 305.27265			43387.38302		69.65600		324.00000 
 43692.65567		 961.16730			42731.48837		135.90600		875.00000 
 43692.65567		 305.27265			43387.38302		69.65600		324.00000 
 43692.65567		 961.16730			42731.48837		135.90600		875.00000 
 43692.65567		 305.27265			43387.38302		69.65600		324.00000 
 43692.65567		 961.16730			42731.48837		135.90600		875.00000 
 43692.65567		 305.27265			43387.38302		69.65600		324.00000 
 43692.65567		 961.16730			42731.48837		135.90600		875.00000 
 43692.65567		 305.27265			43387.38302		69.65600		324.00000 
 43692.65567		 961.16730			42731.48837		135.90600		875.00000 
 43692.65567		 305.27265			43387.38302		69.65600		324.00000 
 43692.65567		 961.16730			42731.48837		135.90600		875.00000 
 43692.65567		 305.27265			43387.38302		69.65600		324.00000 
 43692.65567		 961.16730			42731.48837		135.90600		875.00000 
 43692.65567		 305.27265			43387.38302		69.65600		324.00000 
 43692.65567		 961.16730			42731.48837		135.90600		875.00000 
 43692.65567		 305.27265			43387.38302		69.65600		324.00000 
 43692.65567		 961.16730			42731.48837		135.90600		875.00000 
 43692.65567		 305.27265			43387.38302		69.65600		324.00000 
 43692.65567		 961.16730			42731.48837		135.90600		875.00000 
 43692.65567		 305.27265			43387.38302		69.65600		324.00000 
 43692.65567		 961.16730			42731.48837		135.90600		875.00000 
 43692.65567		 305.27265			43387.38302		69.65600		324.00000 
 43692.65567		 961.16730			42731.48837		135.90600		875.00000 
 43692.65567		 305.27265			43387.38302		69.65600		324.00000 
 43692.65567		 961.16730			42731.48837		135.90600		875.00000 
 43692.65567		 305.27265			43387.38302		69.65600		324.00000 
 43692.65567		 961.16730			42731.48837		135.90600		875.00000 
 43692.65567		 305.27265			43387.38302		69.65600		324.00000 
 43692.65567		 961.16730			42731.48837		135.90600		875.00000 
 43692.65567		 305.27265			43387.38302		69.65600		324.00000 
 43692.65567		 961.16730			42731.48837		135.90600		875.00000 
 43692.65567		 305.27265			43387.38302		69.65600		324.00000 
 43692.65567		 961.16730			42731.48837		135.90600		875.00000 
 43692.65567		 305.27265			43387.38302		69.65600		324.00000 
 43692.65567		 961.16730			42731.48837		135.90600		875.00000 
 43692.65567		 305.27265			43387.38302		69.65600		324.00000 
 43692.65567		 961.16730			42731.48837		135.90600		875.00000 
 43692.65567		 305.27265			43387.38302		69.65600		324.00000 
 43692.65567		 961.16730			42731.48837		135.90600		875.00000 
 43692.65567		 305.27265			43387.38302		69.65600		324.00000 
 43692.65567		 961.16730			42731.48837		135.90600		875.00000 
 43692.65567		 305.27265			43387.38302		69.65600		324.00000 
 43692.65567		 961.16730			42731.48837		135.90600		875.00000 
 43692.65567		 305.27265			43387.38302		69.65600		324.00000 
 43692.65567		 961.16730			42731.48837		135.90600		875.00000 
 43692.65567		 305.27265			43387.38302		69.65600		324.00000 
 43692.65567		 961.16730			42731.48837		135.90600		875.00000 
 43692.65567		 305.27265			43387.38302		69.65600		324.00000 
 43692.65567		 961.16730			42731.48837		135.90600		875.00000 
 43692.65567		 305.27265			43387.38302		69.65600		324.00000 
 43692.65567		 961.16730			42731.48837		135.90600		875.00000 
 43692.65567		 305.27265			43387.38302		69.65600		324.00000 
 43692.65567		 961.16730			42731.48837		135.90600		875.00000 
 43692.65567		 305.27265			43387.38302		69.65600		324.00000 
 43692.65567		 961.16730			42731.48837		135.90600		875.00000 
 43692.65567		 305.27265			43387.38302		69.65600		324.00000 
 43692.65567		 961.16730			42731.48837		135.90600		875.00000 
 43692.65567		 305.27265			43387.38302		69.65600		324.00000 
 43692.65567		 961.16730			42731.48837		135.90600		875.00000 
 43692.65567		 305.27265			43387.38302		69.65600		324.00000 
 43692.65567		 961.16730			42731.48837		135.90600		875.00000 
 43692.65567		 305.27265			43387.38302		69.65600		324.00000 
 43692.65567		 961.16730			42731.48837		135.90600		875.00000 
 43692.65567		 305.27265			43387.38302		69.65600		324.00000 
 43692.65567		 961.16730			42731.48837		135.90600		875.00000 
 43692.65567		 305.27265			43387.38302		69.65600		324.00000 
 43692.65567		 961.16730			42731.48837		135.90600		875.00000 
 43692.65567		 305.27265			43387.38302		69.65600		324.00000 
 43692.65567		 961.16730			42731.48837		135.90600		875.00000 
 43692.65567		 305.27265			43387.38302		69.65600		324.00000 
 43692.65567		 961.16730			42731.48837		135.90600		875.00000 
 43692.65567		 305.27265			43387.38302		69.65600		324.00000 
 43692.65567		 961.16730			42731.48837		135.90600		875.00000 
 43692.65567		 305.27265			43387.38302		69.65600		324.00000 
 43692.65567		 961.16730			42731.48837		135.90600		875.00000 
 43692.65567		 305.27265			43387.38302		69.65600		324.00000 
 43692.65567		 961.16730			42731.48837		135.90600		875.00000 
 43692.65567		 305.27265			43387.38302		69.65600		324.00000 
 43692.65567		 961.16730			42731.48837		135.90600		875.00000 
 43692.65567		 305.27265			43387.38302		69.65600		324.00000 
 43692.65567		 961.16730			42731.48837		135.90600		875.00000 
 43692.65567		 305.27265			43387.38302		69.65600		324.00000 
 43692.65567		 961.16730			42731.48837		135.90600		875.00000 
 43692.65567		 305.27265			43387.38302		69.65600		324.00000 
 43692.65567		 961.16730			42731.48837		135.90600		875.00000 
 43692.65567		 305.27265			43387.38302		69.65600		324.00000 
 43692.65567		 961.16730			42731.48837		135.90600		875.00000 
 43692.65567		 305.27265			43387.38302		69.65600		324.00000 
 43692.65567		 961.16730			42731.48837		135.90600		875.00000 
 43692.65567		 305.27265			43387.38302		69.65600		324.00000 
 43692.65567		 961.16730			42731.48837		135.90600		875.00000 
 43692.65567		 305.27265			43387.38302		69.65600		324.00000 
 43692.65567		 961.16730			42731.48837		135.90600		875.00000 
 43692.65567		 305.27265			43387.38302		69.65600		324.00000 
 43692.65567		 961.16730			42731.48837		135.90600		875.00000 
 43692.65567		 305.27265			43387.38302		69.65600		324.00000 
 43692.65567		 961.16730			42731.48837		135.90600		875.00000 
 43692.65567		 305.27265			43387.38302		69.65600		324.00000 
 43692.65567		 961.16730			42731.48837		135.90600		875.00000 
 43692.65567		 305.27265			43387.38302		69.65600		324.00000 
 43692.65567		 961.16730			42731.48837		135.90600		875.00000 
 43692.65567		 305.27265			43387.38302		69.65600		324.00000 
 43692.65567		 961.16730			42731.48837		195.71600		875.00000 
 43692.65567		 305.27265			43387.38302		69.65600		324.00000 
 43692.65567		 961.16730			42731.48837		195.71600		875.00000 
 43692.65567		 305.27265			43387.38302		69.65600		324.00000 
 43692.65567		 961.16730			42731.48837		195.71600		875.00000 
 43692.65567		 305.27265			43387.38302		69.65600		324.00000 
 43692.65567		 961.16730			42731.48837		195.71600		875.00000 
 43692.65567		 305.27265			43387.38302		69.65600		324.00000 
 43692.65567		 961.16730			42731.48837		195.71600		875.00000 
 43692.65567		 305.27265			43387.38302		69.65600		324.00000 
 43692.65567		 961.16730			42731.48837		195.71600		875.00000 
 43692.65567		 305.27265			43387.38302		69.65600		324.00000 
 43692.65567		 961.16730			42731.48837		195.71600		875.00000 
 43692.65567		 305.27265			43387.38302		69.65600		324.00000 
 43692.65567		 961.16730			42731.48837		195.71600		875.00000 
 43692.65567		 305.27265			43387.38302		69.65600		324.00000 
 43692.65567		 961.16730			42731.48837		195.71600		875.00000 
 43692.65567		 305.27265			43387.38302		69.65600		324.00000 
 43692.65567		 961.16730			42731.48837		195.71600		875.00000 
 43692.65567		 305.27265			43387.38302		69.65600		324.00000 
 43692.65567		 961.16730			42731.48837		195.71600		875.00000 
 43692.65567		 305.27265			43387.38302		69.65600		324.00000 
 43692.65567		 961.16730			42731.48837		195.71600		875.00000 
 43692.65567		 305.27265			43387.38302		69.65600		324.00000 
 43692.65567		 961.16730			42731.48837		195.71600		875.00000 
 43692.65567		 305.27265			43387.38302		69.65600		324.00000 
 43692.65567		 961.16730			42731.48837		195.71600		875.00000 
 43692.65567		 305.27265			43387.38302		69.65600		324.00000 
 43692.65567		 961.16730			42731.48837		195.71600		875.00000 
 43692.65567		 305.27265			43387.38302		69.65600		324.00000 
 43692.65567		 961.16730			42731.48837		195.71600		875.00000 
 43692.65567		 305.27265			43387.38302		69.65600		324.00000 
 43692.65567		 961.16730			42731.48837		195.71600		875.00000 
 43692.65567		 305.27265			43387.38302		69.65600		324.00000 
 43692.65567		 961.16730			42731.48837		195.71600		875.00000 
 43692.65567		 305.27265			43387.38302		69.65600		324.00000 
 43692.65567		 961.16730			42731.48837		195.71600		875.00000 
 43692.65567		 305.27265			43387.38302		69.65600		324.00000 
 43692.65567		 961.16730			42731.48837		195.71600		875.00000 
 43692.65567		 305.27265			43387.38302		69.65600		324.00000 
 43692.65567		 961.16730			42731.48837		195.71600		875.00000 
 43692.65567		 305.27265			43387.38302		68.21400		324.00000 
 43692.65567		 961.16730			42731.48837		195.71600		875.00000 
 43692.65567		 305.27265			43387.38302		68.21400		324.00000 
 43692.65567		 961.16730			42731.48837		195.71600		875.00000 
 43692.65567		 305.27265			43387.38302		68.21400		324.00000 
 43692.65567		 961.16730			42731.48837		195.71600		875.00000 
 43692.65567		 305.27265			43387.38302		68.21400		324.00000 
 43692.65567		 961.16730			42731.48837		195.71600		875.00000 
 43692.65567		 305.27265			43387.38302		68.21400		324.00000 
 43692.65567		 961.16730			42731.48837		195.71600		875.00000 
 43692.65567		 305.27265			43387.38302		68.21400		324.00000 
 43692.65567		 961.16730			42731.48837		195.71600		875.00000 
 43692.65567		 305.27265			43387.38302		68.21400		324.00000 
 43692.65567		 961.16730			42731.48837		195.71600		875.00000 
 43692.65567		 305.27265			43387.38302		68.21400		324.00000 
 43692.65567		 961.16730			42731.48837		195.71600		875.00000 
 43692.65567		 305.27265			43387.38302		68.21400		324.00000 
 43692.65567		 961.16730			42731.48837		195.71600		875.00000 
 43692.65567		 305.27265			43387.38302		68.21400		324.00000 
 43692.65567		 961.16730			42731.48837		195.71600		875.00000 
 43692.65567		 305.27265			43387.38302		68.21400		324.00000 
 43692.65567		 961.16730			42731.48837		195.71600		875.00000 
 43692.65567		 305.27265			43387.38302		68.21400		324.00000 
 43692.65567		 961.16730			42731.48837		195.71600		875.00000 
 43692.65567		 305.27265			43387.38302		68.21400		324.00000 
 43692.65567		 961.16730			42731.48837		195.71600		875.00000 
 43692.65567		 305.27265			43387.38302		68.21400		324.00000 
 43692.65567		 961.16730			42731.48837		195.71600		875.00000 
 43692.65567		 305.27265			43387.38302		68.21400		324.00000 
 43692.65567		 961.16730			42731.48837		195.71600		875.00000 
 43692.65567		 305.27265			43387.38302		68.21400		324.00000 
 43692.65567		 961.16730			42731.48837		195.71600		875.00000 
 43692.65567		 305.27265			43387.38302		68.21400		324.00000 
 43692.65567		 961.16730			42731.48837		195.71600		875.00000 
 43692.65567		 305.27265			43387.38302		68.21400		324.00000 
 43692.65567		 961.16730			42731.48837		195.71600		875.00000 
 43692.65567		 305.27265			43387.38302		68.21400		324.00000 
 43692.65567		 961.16730			42731.48837		195.71600		875.00000 
 43692.65567		 305.27265			43387.38302		68.21400		324.00000 
 43692.65567		 961.16730			42731.48837		195.71600		875.00000 
 43692.65567		 305.27265			43387.38302		68.21400		324.00000 
 43692.65567		 961.16730			42731.48837		195.71600		875.00000 
 43692.65567		 305.27265			43387.38302		68.21400		324.00000 
 43692.65567		 961.16730			42731.48837		195.71600		875.00000 
 43692.65567		 305.27265			43387.38302		68.21400		324.00000 
 43692.65567		 961.16730			42731.48837		195.71600		875.00000 
 43692.65567		 305.27265			43387.38302		68.21400		324.00000 
 43692.65567		 961.16730			42731.48837		195.71600		875.00000 
 43692.65567		 305.27265			43387.38302		68.21400		324.00000 
 43692.65567		 961.16730			42731.48837		195.71600		875.00000 
 43692.65567		 305.27265			43387.38302		68.21400		324.00000 
 43692.65567		 961.16730			42731.48837		195.71600		875.00000 
 43692.65567		 305.27265			43387.38302		68.21400		324.00000 
 43692.65567		 961.16730			42731.48837		195.71600		875.00000 
 43692.65567		 305.27265			43387.38302		68.21400		324.00000 
 43692.65567		 961.16730			42731.48837		195.71600		875.00000 
 43692.65567		 305.27265			43387.38302		68.21400		324.00000 
 43692.65567		 961.16730			42731.48837		195.71600		875.00000 
 43692.65567		 305.27265			43387.38302		68.21400		324.00000 
 43692.65567		 961.16730			42731.48837		195.71600		875.00000 
 43692.65567		 305.27265			43387.38302		68.21400		324.00000 
 43692.65567		 961.16730			42731.48837		195.71600		875.00000 
 43692.65567		 305.27265			43387.38302		68.21400		324.00000 
 43692.65567		 961.16730			42731.48837		195.71600		875.00000 
 43692.65567		 305.27265			43387.38302		68.21400		324.00000 
 43692.65567		 961.16730			42731.48837		195.71600		875.00000 
 43692.65567		 305.27265			43387.38302		68.21400		324.00000 
 43692.65567		 961.16730			42731.48837		195.71600		875.00000 
 43692.65567		 305.27265			43387.38302		68.21400		324.00000 
 43692.65567		 961.16730			42731.48837		195.71600		875.00000 
 43692.65567		 305.27265			43387.38302		68.21400		324.00000 
 43692.65567		 961.16730			42731.48837		195.71600		875.00000 
 43692.65567		 305.27265			43387.38302		68.21400		324.00000 
 43692.65567		 961.16730			42731.48837		195.71600		875.00000 
 43692.65567		 305.27265			43387.38302		68.21400		324.00000 
 43692.65567		 961.16730			42731.48837		195.71600		875.00000 
 43692.65567		 305.27265			43387.38302		68.21400		324.00000 
 43692.65567		 961.16730			42731.48837		195.71600		875.00000 
 43692.65567		 305.27265			43387.38302		68.21400		324.00000 
 43692.65567		 961.16730			42731.48837		218.72400		875.00000 
 43692.65567		 305.27265			43387.38302		68.21400		324.00000 
 43692.65567		 961.16730			42731.48837		218.72400		875.00000 
 43692.65567		 305.27265			43387.38302		68.21400		324.00000 
 43692.65567		 961.16730			42731.48837		218.72400		875.00000 
 43692.65567		 305.27265			43387.38302		68.21400		324.00000 
 43692.65567		 961.16730			42731.48837		218.72400		875.00000 
 43692.65567		 305.27265			43387.38302		68.21400		324.00000 
 43692.65567		 961.16730			42731.48837		218.72400		875.00000 
 43692.65567		 305.27265			43387.38302		68.21400		324.00000 
 43692.65567		 961.16730			42731.48837		218.72400		875.00000 
 43692.65567		 305.27265			43387.38302		68.21400		324.00000 
 43692.65567		 961.16730			42731.48837		218.72400		875.00000 
 43692.65567		 305.27265			43387.38302		68.21400		324.00000 
 43692.65567		 961.16730			42731.48837		218.72400		875.00000 
 43692.65567		 305.27265			43387.38302		68.21400		324.00000 
 43692.65567		 961.16730			42731.48837		218.72400		875.00000 
 43692.65567		 305.27265			43387.38302		68.21400		324.00000 
 43692.65567		 961.16730			42731.48837		218.72400		875.00000 
 43692.65567		 305.27265			43387.38302		68.21400		324.00000 
 43692.65567		 961.16730			42731.48837		218.72400		875.00000 
 43692.65567		 305.27265			43387.38302		68.21400		324.00000 
 43692.65567		 961.16730			42731.48837		218.72400		875.00000 
 43692.65567		 305.27265			43387.38302		68.21400		324.00000 
 43692.65567		 961.16730			42731.48837		218.72400		875.00000 
 43692.65567		 305.27265			43387.38302		68.21400		324.00000 
 43692.65567		 961.16730			42731.48837		218.72400		875.00000 
 43692.65567		 305.27265			43387.38302		68.21400		324.00000 
 43692.65567		 961.16730			42731.48837		218.72400		875.00000 
 43692.65567		 305.27265			43387.38302		68.21400		324.00000 
 43692.65567		 961.16730			42731.48837		218.72400		875.00000 
 43692.65567		 305.27265			43387.38302		68.21400		324.00000 
 43692.65567		 961.16730			42731.48837		218.72400		875.00000 
 43692.65567		 305.27265			43387.38302		68.21400		324.00000 
 43692.65567		 961.16730			42731.48837		218.72400		875.00000 
 43692.65567		 305.27265			43387.38302		68.21400		324.00000 
 43692.65567		 961.16730			42731.48837		218.72400		875.00000 
 43692.65567		 305.27265			43387.38302		68.21400		324.00000 
 43692.65567		 961.16730			42731.48837		218.72400		875.00000 
 43692.65567		 305.27265			43387.38302		68.21400		324.00000 
 43692.65567		 961.16730			42731.48837		218.72400		875.00000 
 43692.65567		 305.27265			43387.38302		68.21400		324.00000 
 43692.65567		 961.16730			42731.48837		218.72400		875.00000 
 43692.65567		 305.27265			43387.38302		68.21400		324.00000 
 43692.65567		 961.16730			42731.48837		218.72400		875.00000 
 43692.65567		 305.27265			43387.38302		68.21400		324.00000 
 43692.65567		 961.16730			42731.48837		218.72400		875.00000 
 43692.65567		 305.27265			43387.38302		68.21400		324.00000 
 43692.65567		 961.16730			42731.48837		218.72400		875.00000 
 43692.65567		 305.27265			43387.38302		68.21400		324.00000 
 43692.65567		 961.16730			42731.48837		218.72400		875.00000 
 43692.65567		 305.27265			43387.38302		68.21400		324.00000 
 43692.65567		 961.16730			42731.48837		218.72400		875.00000 
 43692.65567		 305.27265			43387.38302		68.21400		324.00000 
 43692.65567		 961.16730			42731.48837		218.72400		875.00000 
 43692.65567		 305.27265			43387.38302		68.21400		324.00000 
 43692.65567		 961.16730			42731.48837		218.72400		875.00000 
 43692.65567		 305.27265			43387.38302		68.21400		324.00000 
 43692.65567		 961.16730			42731.48837		218.72400		875.00000 
 43692.65567		 305.27265			43387.38302		68.21400		324.00000 
 43692.65567		 961.16730			42731.48837		218.72400		875.00000 
 43692.65567		 305.27265			43387.38302		68.21400		324.00000 
 43692.65567		 961.16730			42731.48837		218.72400		875.00000 
 43692.65567		 305.27265			43387.38302		68.21400		324.00000 
 43692.65567		 961.16730			42731.48837		218.72400		875.00000 
 43692.65567		 305.27265			43387.38302		68.21400		324.00000 
 43692.65567		 961.16730			42731.48837		218.72400		875.00000 
 43692.65567		 305.27265			43387.38302		68.21400		324.00000 
 43692.65567		 961.16730			42731.48837		218.72400		875.00000 
 43692.65567		 305.27265			43387.38302		68.21400		324.00000 
 43692.65567		 961.16730			42731.48837		218.72400		875.00000 
 43692.65567		 305.27265			43387.38302		68.21400		324.00000 
 43692.65567		 961.16730			42731.48837		218.72400		875.00000 
 43692.65567		 305.27265			43387.38302		68.21400		324.00000 
 43692.65567		 961.16730			42731.48837		218.72400		875.00000 
 43692.65567		 305.27265			43387.38302		68.21400		324.00000 
 43692.65567		 961.16730			42731.48837		218.72400		875.00000 
 43692.65567		 305.27265			43387.38302		68.21400		324.00000 
 43692.65567		 961.16730			42731.48837		218.72400		875.00000 
 43692.65567		 305.27265			43387.38302		68.21400		324.00000 
 43692.65567		 961.16730			42731.48837		218.72400		875.00000 
 43692.65567		 305.27265			43387.38302		68.21400		324.00000 
 43692.65567		 961.16730			42731.48837		218.72400		875.00000 
 43692.65567		 305.27265			43387.38302		68.21400		324.00000 
 43692.65567		 961.16730			42731.48837		218.72400		875.00000 
 43692.65567		 305.27265			43387.38302		68.21400		324.00000 
 43692.65567		 961.16730			42731.48837		218.72400		875.00000 
 43692.65567		 305.27265			43387.38302		68.21400		324.00000 
 43692.65567		 961.16730			42731.48837		218.72400		875.00000 
 43692.65567		 305.27265			43387.38302		68.21400		324.00000 
 43692.65567		 961.16730			42731.48837		218.72400		875.00000 
 43692.65567		 305.27265			43387.38302		68.21400		324.00000 
 43692.65567		 961.16730			42731.48837		218.72400		875.00000 
 43692.65567		 305.27265			43387.38302		68.21400		324.00000 
 43692.65567		 961.16730			42731.48837		218.72400		875.00000 
 43692.65567		 305.27265			43387.38302		68.21400		324.00000 
 43692.65567		 961.16730			42731.48837		218.72400		875.00000 
 43692.65567		 305.27265			43387.38302		68.21400		324.00000 
 43692.65567		 961.16730			42731.48837		218.72400		875.00000 
 43692.65567		 305.27265			43387.38302		68.21400		324.00000 
 43692.65567		 961.16730			42731.48837		218.72400		875.00000 
 43692.65567		 305.27265			43387.38302		68.21400		324.00000 
 43692.65567		 961.16730			42731.48837		218.72400		875.00000 
 43692.65567		 305.27265			43387.38302		68.21400		324.00000 
 43692.65567		 961.16730			42731.48837		218.72400		875.00000 
 43692.65567		 305.27265			43387.38302		68.21400		324.00000 
 43692.65567		 961.16730			42731.48837		218.72400		875.00000 
 43692.65567		 305.27265			43387.38302		68.21400		324.00000 
 43692.65567		 961.16730			42731.48837		218.72400		875.00000 
 43692.65567		 305.27265			43387.38302		68.21400		324.00000 
 43692.65567		 961.16730			42731.48837		218.72400		875.00000 
 43692.65567		 305.27265			43387.38302		68.21400		324.00000 
 43692.65567		 961.16730			42731.48837		218.72400		875.00000 
 43692.65567		 305.27265			43387.38302		68.21400		324.00000 
 43692.65567		 961.16730			42731.48837		218.72400		875.00000 
 43692.65567		 305.27265			43387.38302		68.21400		324.00000 
 43692.65567		 961.16730			42731.48837		218.72400		875.00000 
 43692.65567		 305.27265			43387.38302		68.21400		324.00000 
 43692.65567		 961.16730			42731.48837		218.72400		875.00000 
 43692.65567		 305.27265			43387.38302		68.21400		324.00000 
 43692.65567		 961.16730			42731.48837		218.72400		875.00000 
 43692.65567		 305.27265			43387.38302		68.21400		324.00000 
 43692.65567		 961.16730			42731.48837		218.72400		875.00000 
 43692.65567		 305.27265			43387.38302		68.21400		324.00000 
 43692.65567		 961.16730			42731.48837		218.72400		875.00000 
 43692.65567		 305.27265			43387.38302		68.21400		324.00000 
 43692.65567		 961.16730			42731.48837		218.72400		875.00000 
 43692.65567		 305.27265			43387.38302		68.21400		324.00000 
 43692.65567		 961.16730			42731.48837		226.09400		875.00000 
 43692.65567		 305.27265			43387.38302		68.21400		324.00000 
 43692.65567		 961.16730			42731.48837		226.09400		875.00000 
 43692.65567		 305.27265			43387.38302		68.21400		324.00000 
 43692.65567		 961.16730			42731.48837		226.09400		875.00000 
 43692.65567		 305.27265			43387.38302		68.21400		324.00000 
 43692.65567		 961.16730			42731.48837		226.09400		875.00000 
 43692.65567		 305.27265			43387.38302		68.21400		324.00000 
 43692.65567		 961.16730			42731.48837		226.09400		875.00000 
 43692.65567		 305.27265			43387.38302		68.21400		324.00000 
 43692.65567		 961.16730			42731.48837		226.09400		875.00000 
 43692.65567		 305.27265			43387.38302		68.21400		324.00000 
 43692.65567		 961.16730			42731.48837		226.09400		875.00000 
 43692.65567		 305.27265			43387.38302		68.21400		324.00000 
 43692.65567		 961.16730			42731.48837		226.09400		875.00000 
 43692.65567		 305.27265			43387.38302		68.21400		324.00000 
 43692.65567		 961.16730			42731.48837		226.09400		875.00000 
 43692.65567		 305.27265			43387.38302		68.21400		324.00000 
 43692.65567		 961.16730			42731.48837		226.09400		875.00000 
 43692.65567		 305.27265			43387.38302		68.21400		324.00000 
 43692.65567		 961.16730			42731.48837		226.09400		875.00000 
 43692.65567		 305.27265			43387.38302		68.21400		324.00000 
 43692.65567		 961.16730			42731.48837		226.09400		875.00000 
 43692.65567		 305.27265			43387.38302		68.21400		324.00000 
 43692.65567		 961.16730			42731.48837		226.09400		875.00000 
 43692.65567		 305.27265			43387.38302		68.21400		324.00000 
 43692.65567		 961.16730			42731.48837		226.09400		875.00000 
 43692.65567		 305.27265			43387.38302		68.21400		324.00000 
 43692.65567		 961.16730			42731.48837		226.09400		875.00000 
 43692.65567		 305.27265			43387.38302		68.21400		324.00000 
 43692.65567		 961.16730			42731.48837		226.09400		875.00000 
 43692.65567		 305.27265			43387.38302		68.21400		324.00000 
 43692.65567		 961.16730			42731.48837		226.09400		875.00000 
 43692.65567		 305.27265			43387.38302		68.21400		324.00000 
 43692.65567		 961.16730			42731.48837		226.09400		875.00000 
 43692.65567		 305.27265			43387.38302		68.21400		324.00000 
 43692.65567		 961.16730			42731.48837		226.09400		875.00000 
 43692.65567		 305.27265			43387.38302		68.21400		324.00000 
 43692.65567		 961.16730			42731.48837		226.09400		875.00000 
 43692.65567		 305.27265			43387.38302		68.21400		324.00000 
 43692.65567		 961.16730			42731.48837		226.09400		875.00000 
 43692.65567		 305.27265			43387.38302		68.21400		324.00000 
 43692.65567		 961.16730			42731.48837		226.09400		875.00000 
 43692.65567		 305.27265			43387.38302		68.21400		324.00000 
 43692.65567		 961.16730			42731.48837		226.09400		875.00000 
 43692.65567		 305.27265			43387.38302		68.21400		324.00000 
 43692.65567		 961.16730			42731.48837		226.09400		875.00000 
 43692.65567		 305.27265			43387.38302		68.21400		324.00000 
 43692.65567		 961.16730			42731.48837		226.09400		875.00000 
 43692.65567		 305.27265			43387.38302		68.21400		324.00000 
 43692.65567		 961.16730			42731.48837		226.09400		875.00000 
 43692.65567		 305.27265			43387.38302		68.21400		324.00000 
 43692.65567		 961.16730			42731.48837		226.09400		875.00000 
 43692.65567		 305.27265			43387.38302		68.21400		324.00000 
 43692.65567		 961.16730			42731.48837		226.09400		875.00000 
 43692.65567		 305.27265			43387.38302		68.21400		324.00000 
 43692.65567		 961.16730			42731.48837		226.09400		875.00000 
 43692.65567		 305.27265			43387.38302		68.21400		324.00000 
 43692.65567		 961.16730			42731.48837		226.09400		875.00000 
 43692.65567		 305.27265			43387.38302		68.21400		324.00000 
 43692.65567		 961.16730			42731.48837		226.09400		875.00000 
 43692.65567		 305.27265			43387.38302		68.21400		324.00000 
 43692.65567		 961.16730			42731.48837		226.09400		875.00000 
 43692.65567		 305.27265			43387.38302		68.21400		324.00000 
 43692.65567		 961.16730			42731.48837		226.09400		875.00000 
 43692.65567		 305.27265			43387.38302		68.21400		324.00000 
 43692.65567		 961.16730			42731.48837		226.09400		875.00000 
 43692.65567		 305.27265			43387.38302		68.21400		324.00000 
 43692.65567		 961.16730			42731.48837		226.09400		875.00000 
 43692.65567		 305.27265			43387.38302		68.21400		324.00000 
 43692.65567		 961.16730			42731.48837		226.09400		875.00000 
 43692.65567		 305.27265			43387.38302		68.21400		324.00000 
 43692.65567		 961.16730			42731.48837		226.09400		875.00000 
 43692.65567		 305.27265			43387.38302		68.21400		324.00000 
 43692.65567		 961.16730			42731.48837		226.09400		875.00000 
 43692.65567		 305.27265			43387.38302		68.21400		324.00000 
 43692.65567		 961.16730			42731.48837		226.09400		875.00000 
 43692.65567		 305.27265			43387.38302		68.21400		324.00000 
 43692.65567		 961.16730			42731.48837		226.09400		875.00000 
 43692.65567		 305.27265			43387.38302		68.21400		324.00000 
 43692.65567		 961.16730			42731.48837		226.09400		875.00000 
 43692.65567		 305.27265			43387.38302		68.21400		324.00000 
 43692.65567		 961.16730			42731.48837		226.09400		875.00000 
 43692.65567		 305.27265			43387.38302		68.21400		324.00000 
 43692.65567		 961.16730			42731.48837		226.09400		875.00000 
 43692.65567		 305.27265			43387.38302		68.21400		324.00000 
 43692.65567		 961.16730			42731.48837		226.09400		875.00000 
 43692.65567		 305.27265			43387.38302		68.21400		324.00000 
 43692.65567		 961.16730			42731.48837		226.09400		875.00000 
 43692.65567		 305.27265			43387.38302		68.21400		324.00000 
 43692.65567		 961.16730			42731.48837		226.09400		875.00000 
 43692.65567		 305.27265			43387.38302		68.21400		324.00000 
 43692.65567		 961.16730			42731.48837		226.09400		875.00000 
 43692.65567		 305.27265			43387.38302		68.21400		324.00000 
 43692.65567		 961.16730			42731.48837		226.09400		875.00000 
 43692.65567		 305.27265			43387.38302		68.21400		324.00000 
 43692.65567		 961.16730			42731.48837		226.09400		875.00000 
 43692.65567		 305.27265			43387.38302		68.21400		324.00000 
 43692.65567		 961.16730			42731.48837		226.09400		875.00000 
 43692.65567		 305.27265			43387.38302		68.21400		324.00000 
 43692.65567		 961.16730			42731.48837		226.09400		875.00000 
 43692.65567		 305.27265			43387.38302		68.21400		324.00000 
 43692.65567		 961.16730			42731.48837		226.09400		875.00000 
 43692.65567		 305.27265			43387.38302		68.21400		324.00000 
 43692.65567		 961.16730			42731.48837		226.09400		875.00000 
 43692.65567		 305.27265			43387.38302		68.21400		324.00000 
 43692.65567		 961.16730			42731.48837		226.09400		875.00000 
 43692.65567		 305.27265			43387.38302		68.21400		324.00000 
 43692.65567		 961.16730			42731.48837		226.09400		875.00000 
 43692.65567		 305.27265			43387.38302		68.21400		324.00000 
 43692.65567		 961.16730			42731.48837		226.09400		875.00000 
 43692.65567		 305.27265			43387.38302		68.21400		324.00000 
 43692.65567		 961.16730			42731.48837		226.09400		875.00000 
 43692.65567		 305.27265			43387.38302		68.21400		324.00000 
 43692.65567		 961.16730			42731.48837		226.09400		875.00000 
 43692.65567		 305.27265			43387.38302		68.21400		324.00000 
 43692.65567		 961.16730			42731.48837		226.09400		875.00000 
 43692.65567		 305.27265			43387.38302		68.21400		324.00000 
 43692.65567		 961.16730			42731.48837		226.09400		875.00000 
 43692.65567		 305.27265			43387.38302		68.21400		324.00000 
 43692.65567		 961.16730			42731.48837		226.09400		875.00000 
 43692.65567		 305.27265			43387.38302		68.21400		324.00000 
 43692.65567		 961.16730			42731.48837		226.09400		875.00000 
 43692.65567		 305.27265			43387.38302		68.21400		324.00000 
 43692.65567		 961.16730			42731.48837		226.09400		875.00000 
 43692.65567		 305.27265			43387.38302		68.21400		324.00000 
 43692.65567		 961.16730			42731.48837		226.09400		875.00000 
 43692.65567		 305.27265			43387.38302		68.21400		324.00000 
 43692.65567		 961.16730			42731.48837		228.67800		875.00000 
 43692.65567		 305.27265			43387.38302		68.21400		324.00000 
 43692.65567		 961.16730			42731.48837		228.67800		875.00000 
 43692.65567		 305.27265			43387.38302		68.21400		324.00000 
 43692.65567		 961.16730			42731.48837		228.67800		875.00000 
 43692.65567		 305.27265			43387.38302		68.21400		324.00000 
 43692.65567		 961.16730			42731.48837		228.67800		875.00000 
 43692.65567		 305.27265			43387.38302		68.21400		324.00000 
 43692.65567		 961.16730			42731.48837		228.67800		875.00000 
 43692.65567		 305.27265			43387.38302		68.21400		324.00000 
 43692.65567		 961.16730			42731.48837		228.67800		875.00000 
 43692.65567		 305.27265			43387.38302		68.21400		324.00000 
 43692.65567		 961.16730			42731.48837		228.67800		875.00000 
 43692.65567		 305.27265			43387.38302		68.21400		324.00000 
 43692.65567		 961.16730			42731.48837		228.67800		875.00000 
 43692.65567		 305.27265			43387.38302		68.21400		324.00000 
 43692.65567		 961.16730			42731.48837		228.67800		875.00000 
 43692.65567		 305.27265			43387.38302		68.21400		324.00000 
 43692.65567		 961.16730			42731.48837		228.67800		875.00000 
 43692.65567		 305.27265			43387.38302		68.21400		324.00000 
 43692.65567		 961.16730			42731.48837		228.67800		875.00000 
 43692.65567		 305.27265			43387.38302		68.21400		324.00000 
 43692.65567		 961.16730			42731.48837		228.67800		875.00000 
 43692.65567		 305.27265			43387.38302		68.21400		324.00000 
 43692.65567		 961.16730			42731.48837		228.67800		875.00000 
 43692.65567		 305.27265			43387.38302		68.21400		324.00000 
 43692.65567		 961.16730			42731.48837		228.67800		875.00000 
 43692.65567		 305.27265			43387.38302		68.21400		324.00000 
 43692.65567		 961.16730			42731.48837		228.67800		875.00000 
 43692.65567		 305.27265			43387.38302		68.21400		324.00000 
 43692.65567		 961.16730			42731.48837		228.67800		875.00000 
 43692.65567		 305.27265			43387.38302		68.21400		324.00000 
 43692.65567		 961.16730			42731.48837		228.67800		875.00000 
 43692.65567		 305.27265			43387.38302		68.21400		324.00000 
 43692.65567		 961.16730			42731.48837		228.67800		875.00000 
 43692.65567		 305.27265			43387.38302		68.21400		324.00000 
 43692.65567		 961.16730			42731.48837		228.67800		875.00000 
 43692.65567		 305.27265			43387.38302		68.21400		324.00000 
 43692.65567		 961.16730			42731.48837		228.67800		875.00000 
 43692.65567		 305.27265			43387.38302		68.21400		324.00000 
 43692.65567		 961.16730			42731.48837		228.67800		875.00000 
 43692.65567		 305.27265			43387.38302		68.21400		324.00000 
 43692.65567		 961.16730			42731.48837		228.67800		875.00000 
 43692.65567		 305.27265			43387.38302		68.21400		324.00000 
 43692.65567		 961.16730			42731.48837		228.67800		875.00000 
 43692.65567		 305.27265			43387.38302		68.21400		324.00000 
 43692.65567		 961.16730			42731.48837		228.67800		875.00000 
 43692.65567		 305.27265			43387.38302		68.21400		324.00000 
 43692.65567		 961.16730			42731.48837		228.67800		875.00000 
 43692.65567		 305.27265			43387.38302		68.21400		324.00000 
 43692.65567		 961.16730			42731.48837		228.67800		875.00000 
 43692.65567		 305.27265			43387.38302		68.21400		324.00000 
 43692.65567		 961.16730			42731.48837		228.67800		875.00000 
 43692.65567		 305.27265			43387.38302		68.21400		324.00000 
 43692.65567		 961.16730			42731.48837		228.67800		875.00000 
 43692.65567		 305.27265			43387.38302		68.21400		324.00000 
 43692.65567		 961.16730			42731.48837		228.67800		875.00000 
 43692.65567		 305.27265			43387.38302		68.21400		324.00000 
 43692.65567		 961.16730			42731.48837		228.67800		875.00000 
 43692.65567		 305.27265			43387.38302		68.21400		324.00000 
 43692.65567		 961.16730			42731.48837		228.67800		875.00000 
 43692.65567		 305.27265			43387.38302		68.21400		324.00000 
 43692.65567		 961.16730			42731.48837		228.67800		875.00000 
 43692.65567		 305.27265			43387.38302		68.21400		324.00000 
 43692.65567		 961.16730			42731.48837		228.67800		875.00000 
 43692.65567		 305.27265			43387.38302		68.21400		324.00000 
 43692.65567		 961.16730			42731.48837		228.67800		875.00000 
 43692.65567		 305.27265			43387.38302		68.21400		324.00000 
 43692.65567		 961.16730			42731.48837		228.67800		875.00000 
 43692.65567		 305.27265			43387.38302		68.21400		324.00000 
 43692.65567		 961.16730			42731.48837		228.67800		875.00000 
 43692.65567		 305.27265			43387.38302		68.21400		324.00000 
 43692.65567		 961.16730			42731.48837		228.67800		875.00000 
 43692.65567		 305.27265			43387.38302		68.21400		324.00000 
 43692.65567		 961.16730			42731.48837		228.67800		875.00000 
 43692.65567		 305.27265			43387.38302		68.21400		324.00000 
 43692.65567		 961.16730			42731.48837		228.67800		875.00000 
 43692.65567		 305.27265			43387.38302		68.21400		324.00000 
 43692.65567		 961.16730			42731.48837		228.67800		875.00000 
 43692.65567		 305.27265			43387.38302		68.21400		324.00000 
 43692.65567		 961.16730			42731.48837		228.67800		875.00000 
 43692.65567		 305.27265			43387.38302		68.21400		324.00000 
 43692.65567		 961.16730			42731.48837		228.67800		875.00000 
 43692.65567		 305.27265			43387.38302		68.21400		324.00000 
 43692.65567		 961.16730			42731.48837		228.67800		875.00000 
 43692.65567		 305.27265			43387.38302		68.21400		324.00000 
 43692.65567		 961.16730			42731.48837		228.67800		875.00000 
 43692.65567		 305.27265			43387.38302		68.21400		324.00000 
 43692.65567		 961.16730			42731.48837		228.67800		875.00000 
 43692.65567		 305.27265			43387.38302		68.21400		324.00000 
 43692.65567		 961.16730			42731.48837		228.67800		875.00000 
 43692.65567		 305.27265			43387.38302		68.21400		324.00000 
 43692.65567		 961.16730			42731.48837		228.67800		875.00000 
 43692.65567		 305.27265			43387.38302		68.21400		324.00000 
 43692.65567		 961.16730			42731.48837		228.67800		875.00000 
 43692.65567		 305.27265			43387.38302		68.21400		324.00000 
 43692.65567		 961.16730			42731.48837		228.67800		875.00000 
 43692.65567		 305.27265			43387.38302		68.21400		324.00000 
 43692.65567		 961.16730			42731.48837		228.67800		875.00000 
 43692.65567		 305.27265			43387.38302		68.21400		324.00000 
 43692.65567		 961.16730			42731.48837		228.67800		875.00000 
 43692.65567		 305.27265			43387.38302		68.21400		324.00000 
 43692.65567		 961.16730			42731.48837		228.67800		875.00000 
 43692.65567		 305.27265			43387.38302		68.21400		324.00000 
 43692.65567		 961.16730			42731.48837		228.67800		875.00000 
 43692.65567		 305.27265			43387.38302		68.21400		324.00000 
 43692.65567		 961.16730			42731.48837		228.67800		875.00000 
 43692.65567		 305.27265			43387.38302		68.21400		324.00000 
 43692.65567		 961.16730			42731.48837		228.67800		875.00000 
 43692.65567		 305.27265			43387.38302		68.21400		324.00000 
 43692.65567		 961.16730			42731.48837		228.67800		875.00000 
 43692.65567		 305.27265			43387.38302		68.21400		324.00000 
 43692.65567		 961.16730			42731.48837		228.67800		875.00000 
 43692.65567		 305.27265			43387.38302		68.21400		324.00000 
 43692.65567		 961.16730			42731.48837		228.67800		875.00000 
 43692.65567		 305.27265			43387.38302		68.21400		324.00000 
 43692.65567		 961.16730			42731.48837		228.67800		875.00000 
 43692.65567		 305.27265			43387.38302		68.21400		324.00000 
 43692.65567		 961.16730			42731.48837		228.67800		875.00000 
 43692.65567		 305.27265			43387.38302		68.21400		324.00000 
 43692.65567		 961.16730			42731.48837		228.67800		875.00000 
 43692.65567		 305.27265			43387.38302		68.21400		324.00000 
 43692.65567		 961.16730			42731.48837		228.67800		875.00000 
 43692.65567		 305.27265			43387.38302		68.21400		324.00000 
 43692.65567		 961.16730			42731.48837		228.67800		875.00000 
 43692.65567		 305.27265			43387.38302		68.21400		324.00000 
 43692.65567		 961.16730			42731.48837		228.67800		875.00000 
 43692.65567		 305.27265			43387.38302		68.21400		324.00000 
 43692.65567		 961.16730			42731.48837		229.89800		875.00000 
 43692.65567		 305.27265			43387.38302		68.21400		324.00000 
 43692.65567		 961.16730			42731.48837		229.89800		875.00000 
 43692.65567		 305.27265			43387.38302		68.21400		324.00000 
 43692.65567		 961.16730			42731.48837		229.89800		875.00000 
 43692.65567		 305.27265			43387.38302		68.21400		324.00000 
 43692.65567		 961.16730			42731.48837		229.89800		875.00000 
 43692.65567		 305.27265			43387.38302		68.21400		324.00000 
 43692.65567		 961.16730			42731.48837		229.89800		875.00000 
 43692.65567		 305.27265			43387.38302		68.21400		324.00000 
 43692.65567		 961.16730			42731.48837		229.89800		875.00000 
 43692.65567		 305.27265			43387.38302		68.21400		324.00000 
 43692.65567		 961.16730			42731.48837		229.89800		875.00000 
 43692.65567		 305.27265			43387.38302		68.21400		324.00000 
 43692.65567		 961.16730			42731.48837		229.89800		875.00000 
 43692.65567		 305.27265			43387.38302		68.21400		324.00000 
 43692.65567		 961.16730			42731.48837		229.89800		875.00000 
 43692.65567		 305.27265			43387.38302		68.21400		324.00000 
 43692.65567		 961.16730			42731.48837		229.89800		875.00000 
 43692.65567		 305.27265			43387.38302		68.21400		324.00000 
 43692.65567		 961.16730			42731.48837		229.89800		875.00000 
 43692.65567		 305.27265			43387.38302		68.21400		324.00000 
 43692.65567		 961.16730			42731.48837		229.89800		875.00000 
 43692.65567		 305.27265			43387.38302		68.21400		324.00000 
 43692.65567		 961.16730			42731.48837		229.89800		875.00000 
 43692.65567		 305.27265			43387.38302		68.21400		324.00000 
 43692.65567		 961.16730			42731.48837		229.89800		875.00000 
 43692.65567		 305.27265			43387.38302		68.21400		324.00000 
 43692.65567		 961.16730			42731.48837		229.89800		875.00000 
 43692.65567		 305.27265			43387.38302		68.21400		324.00000 
 43692.65567		 961.16730			42731.48837		229.89800		875.00000 
 43692.65567		 305.27265			43387.38302		68.21400		324.00000 
 43692.65567		 961.16730			42731.48837		229.89800		875.00000 
 43692.65567		 305.27265			43387.38302		68.21400		324.00000 
 43692.65567		 961.16730			42731.48837		229.89800		875.00000 
 43692.65567		 305.27265			43387.38302		68.21400		324.00000 
 43692.65567		 961.16730			42731.48837		229.89800		875.00000 
 43692.65567		 305.27265			43387.38302		68.21400		324.00000 
 43692.65567		 961.16730			42731.48837		229.89800		875.00000 
 43692.65567		 305.27265			43387.38302		68.21400		324.00000 
 43692.65567		 961.16730			42731.48837		229.89800		875.00000 
 43692.65567		 305.27265			43387.38302		68.21400		324.00000 
 43692.65567		 961.16730			42731.48837		229.89800		875.00000 
 43692.65567		 305.27265			43387.38302		68.21400		324.00000 
 43692.65567		 961.16730			42731.48837		229.89800		875.00000 
 43692.65567		 305.27265			43387.38302		68.21400		324.00000 
 43692.65567		 961.16730			42731.48837		229.89800		875.00000 
 43692.65567		 305.27265			43387.38302		68.21400		324.00000 
 43692.65567		 961.16730			42731.48837		229.89800		875.00000 
 43692.65567		 305.27265			43387.38302		68.21400		324.00000 
 43692.65567		 961.16730			42731.48837		229.89800		875.00000 
 43692.65567		 305.27265			43387.38302		68.21400		324.00000 
 43692.65567		 961.16730			42731.48837		229.89800		875.00000 
 43692.65567		 305.27265			43387.38302		68.21400		324.00000 
 43692.65567		 961.16730			42731.48837		229.89800		875.00000 
 43692.65567		 305.27265			43387.38302		68.21400		324.00000 
 43692.65567		 961.16730			42731.48837		229.89800		875.00000 
 43692.65567		 305.27265			43387.38302		68.21400		324.00000 
 43692.65567		 961.16730			42731.48837		229.89800		875.00000 
 43692.65567		 305.27265			43387.38302		68.21400		324.00000 
 43692.65567		 961.16730			42731.48837		229.89800		875.00000 
 43692.65567		 305.27265			43387.38302		68.21400		324.00000 
 43692.65567		 961.16730			42731.48837		229.89800		875.00000 
 43692.65567		 305.27265			43387.38302		68.21400		324.00000 
 43692.65567		 961.16730			42731.48837		229.89800		875.00000 
 43692.65567		 305.27265			43387.38302		68.21400		324.00000 
 43692.65567		 961.16730			42731.48837		229.89800		875.00000 
 43692.65567		 305.27265			43387.38302		68.21400		324.00000 
 43692.65567		 961.16730			42731.48837		229.89800		875.00000 
 43692.65567		 305.27265			43387.38302		68.21400		324.00000 
 43692.65567		 961.16730			42731.48837		229.89800		875.00000 
 43692.65567		 305.27265			43387.38302		68.21400		324.00000 
 43692.65567		 961.16730			42731.48837		229.89800		875.00000 
 43692.65567		 305.27265			43387.38302		68.21400		324.00000 
 43692.65567		 961.16730			42731.48837		229.89800		875.00000 
 43692.65567		 305.27265			43387.38302		68.21400		324.00000 
 43692.65567		 961.16730			42731.48837		229.89800		875.00000 
 43692.65567		 305.27265			43387.38302		68.21400		324.00000 
 43692.65567		 961.16730			42731.48837		229.89800		875.00000 
 43692.65567		 305.27265			43387.38302		68.21400		324.00000 
 43692.65567		 961.16730			42731.48837		229.89800		875.00000 
 43692.65567		 305.27265			43387.38302		68.21400		324.00000 
 43692.65567		 961.16730			42731.48837		229.89800		875.00000 
 43692.65567		 305.27265			43387.38302		68.21400		324.00000 
 43692.65567		 961.16730			42731.48837		229.89800		875.00000 
 43692.65567		 305.27265			43387.38302		68.21400		324.00000 
 43692.65567		 961.16730			42731.48837		229.89800		875.00000 
 43692.65567		 305.27265			43387.38302		68.21400		324.00000 
 43692.65567		 961.16730			42731.48837		229.89800		875.00000 
 43692.65567		 305.27265			43387.38302		68.21400		324.00000 
 43692.65567		 961.16730			42731.48837		229.89800		875.00000 
 43692.65567		 305.27265			43387.38302		68.21400		324.00000 
 43692.65567		 961.16730			42731.48837		229.89800		875.00000 
 43692.65567		 305.27265			43387.38302		68.21400		324.00000 
 43692.65567		 961.16730			42731.48837		229.89800		875.00000 
 43692.65567		 305.27265			43387.38302		68.21400		324.00000 
 43692.65567		 961.16730			42731.48837		229.89800		875.00000 
 43692.65567		 305.27265			43387.38302		68.21400		324.00000 
 43692.65567		 961.16730			42731.48837		229.89800		875.00000 
 43692.65567		 305.27265			43387.38302		68.21400		324.00000 
 43692.65567		 961.16730			42731.48837		229.89800		875.00000 
 43692.65567		 305.27265			43387.38302		68.21400		324.00000 
 43692.65567		 961.16730			42731.48837		229.89800		875.00000 
 43692.65567		 305.27265			43387.38302		68.21400		324.00000 
 43692.65567		 961.16730			42731.48837		229.89800		875.00000 
 43692.65567		 305.27265			43387.38302		68.21400		324.00000 
 43692.65567		 961.16730			42731.48837		229.89800		875.00000 
 43692.65567		 305.27265			43387.38302		68.21400		324.00000 
 43692.65567		 961.16730			42731.48837		229.89800		875.00000 
 43692.65567		 305.27265			43387.38302		68.21400		324.00000 
 43692.65567		 961.16730			42731.48837		229.89800		875.00000 
 43692.65567		 305.27265			43387.38302		68.21400		324.00000 
 43692.65567		 961.16730			42731.48837		229.89800		875.00000 
 43692.65567		 305.27265			43387.38302		68.21400		324.00000 
 43692.65567		 961.16730			42731.48837		229.89800		875.00000 
 43692.65567		 305.27265			43387.38302		68.21400		324.00000 
 43692.65567		 961.16730			42731.48837		229.89800		875.00000 
 43692.65567		 305.27265			43387.38302		68.21400		324.00000 
 43692.65567		 961.16730			42731.48837		229.89800		875.00000 
 43692.65567		 305.27265			43387.38302		68.21400		324.00000 
 43692.65567		 961.16730			42731.48837		229.89800		875.00000 
 43692.65567		 305.27265			43387.38302		68.21400		324.00000 
 43692.65567		 961.16730			42731.48837		229.89800		875.00000 
 43692.65567		 305.27265			43387.38302		68.21400		324.00000 
 43692.65567		 961.16730			42731.48837		229.89800		875.00000 
 43692.65567		 305.27265			43387.38302		68.21400		324.00000 
 43692.65567		 961.16730			42731.48837		229.89800		875.00000 
 43692.65567		 305.27265			43387.38302		68.21400		324.00000 
 43692.65567		 961.16730			42731.48837		230.14400		875.00000 
 43692.65567		 305.27265			43387.38302		68.21400		324.00000 
 43692.65567		 961.16730			42731.48837		230.14400		875.00000 
 43692.65567		 305.27265			43387.38302		68.21400		324.00000 
 43692.65567		 961.16730			42731.48837		230.14400		875.00000 
 43692.65567		 305.27265			43387.38302		68.21400		324.00000 
 43692.65567		 961.16730			42731.48837		230.14400		875.00000 
 43692.65567		 305.27265			43387.38302		68.21400		324.00000 
 43692.65567		 961.16730			42731.48837		230.14400		875.00000 
 43692.65567		 305.27265			43387.38302		68.21400		324.00000 
 43692.65567		 961.16730			42731.48837		230.14400		875.00000 
 43692.65567		 305.27265			43387.38302		68.21400		324.00000 
 43692.65567		 961.16730			42731.48837		230.14400		875.00000 
 43692.65567		 305.27265			43387.38302		68.21400		324.00000 
 43692.65567		 961.16730			42731.48837		230.14400		875.00000 
 43692.65567		 305.27265			43387.38302		68.21400		324.00000 
 43692.65567		 961.16730			42731.48837		230.14400		875.00000 
 43692.65567		 305.27265			43387.38302		68.21400		324.00000 
 43692.65567		 961.16730			42731.48837		230.14400		875.00000 
 43692.65567		 305.27265			43387.38302		68.21400		324.00000 
 43692.65567		 961.16730			42731.48837		230.14400		875.00000 
 43692.65567		 305.27265			43387.38302		68.21400		324.00000 
 43692.65567		 961.16730			42731.48837		230.14400		875.00000 
 43692.65567		 305.27265			43387.38302		68.21400		324.00000 
 43692.65567		 961.16730			42731.48837		230.14400		875.00000 
 43692.65567		 305.27265			43387.38302		68.21400		324.00000 
 43692.65567		 961.16730			42731.48837		230.14400		875.00000 
 43692.65567		 305.27265			43387.38302		68.21400		324.00000 
 43692.65567		 961.16730			42731.48837		230.14400		875.00000 
 43692.65567		 305.27265			43387.38302		68.21400		324.00000 
 43692.65567		 961.16730			42731.48837		230.14400		875.00000 
 43692.65567		 305.27265			43387.38302		68.21400		324.00000 
 43692.65567		 961.16730			42731.48837		230.14400		875.00000 
 43692.65567		 305.27265			43387.38302		68.21400		324.00000 
 43692.65567		 961.16730			42731.48837		230.14400		875.00000 
 43692.65567		 305.27265			43387.38302		68.21400		324.00000 
 43692.65567		 961.16730			42731.48837		230.14400		875.00000 
 43692.65567		 305.27265			43387.38302		68.21400		324.00000 
 43692.65567		 961.16730			42731.48837		230.14400		875.00000 
 43692.65567		 305.27265			43387.38302		68.21400		324.00000 
 43692.65567		 961.16730			42731.48837		230.14400		875.00000 
 43692.65567		 305.27265			43387.38302		68.21400		324.00000 
 43692.65567		 961.16730			42731.48837		230.14400		875.00000 
 43692.65567		 305.27265			43387.38302		68.21400		324.00000 
 43692.65567		 961.16730			42731.48837		230.14400		875.00000 
 43692.65567		 305.27265			43387.38302		68.21400		324.00000 
 43692.65567		 961.16730			42731.48837		230.14400		875.00000 
 43692.65567		 305.27265			43387.38302		68.21400		324.00000 
 43692.65567		 961.16730			42731.48837		230.14400		875.00000 
 43692.65567		 305.27265			43387.38302		68.21400		324.00000 
 43692.65567		 961.16730			42731.48837		230.14400		875.00000 
 43692.65567		 305.27265			43387.38302		68.21400		324.00000 
 43692.65567		 961.16730			42731.48837		230.14400		875.00000 
 43692.65567		 305.27265			43387.38302		68.21400		324.00000 
 43692.65567		 961.16730			42731.48837		230.14400		875.00000 
 43692.65567		 305.27265			43387.38302		68.21400		324.00000 
 43692.65567		 961.16730			42731.48837		230.14400		875.00000 
 43692.65567		 305.27265			43387.38302		68.21400		324.00000 
 43692.65567		 961.16730			42731.48837		230.14400		875.00000 
 43692.65567		 305.27265			43387.38302		68.21400		324.00000 
 43692.65567		 961.16730			42731.48837		230.14400		875.00000 
 43692.65567		 305.27265			43387.38302		68.21400		324.00000 
 43692.65567		 961.16730			42731.48837		230.14400		875.00000 
 43692.65567		 305.27265			43387.38302		68.21400		324.00000 
 43692.65567		 961.16730			42731.48837		230.14400		875.00000 
 43692.65567		 305.27265			43387.38302		68.21400		324.00000 
 43692.65567		 961.16730			42731.48837		230.14400		875.00000 
 43692.65567		 305.27265			43387.38302		68.21400		324.00000 
 43692.65567		 961.16730			42731.48837		230.14400		875.00000 
 43692.65567		 305.27265			43387.38302		68.21400		324.00000 
 43692.65567		 961.16730			42731.48837		230.14400		875.00000 
 43692.65567		 305.27265			43387.38302		68.21400		324.00000 
 43692.65567		 961.16730			42731.48837		230.14400		875.00000 
 43692.65567		 305.27265			43387.38302		68.21400		324.00000 
 43692.65567		 961.16730			42731.48837		230.14400		875.00000 
 43692.65567		 305.27265			43387.38302		68.21400		324.00000 
 43692.65567		 961.16730			42731.48837		230.14400		875.00000 
 43692.65567		 305.27265			43387.38302		68.21400		324.00000 
 43692.65567		 961.16730			42731.48837		230.14400		875.00000 
 43692.65567		 305.27265			43387.38302		68.21400		324.00000 
 43692.65567		 961.16730			42731.48837		230.14400		875.00000 
 43692.65567		 305.27265			43387.38302		68.21400		324.00000 
 43692.65567		 961.16730			42731.48837		230.14400		875.00000 
 43692.65567		 305.27265			43387.38302		68.21400		324.00000 
 43692.65567		 961.16730			42731.48837		230.14400		875.00000 
 43692.65567		 305.27265			43387.38302		68.21400		324.00000 
 43692.65567		 961.16730			42731.48837		230.14400		875.00000 
 43692.65567		 305.27265			43387.38302		68.21400		324.00000 
 43692.65567		 961.16730			42731.48837		230.14400		875.00000 
 43692.65567		 305.27265			43387.38302		68.21400		324.00000 
 43692.65567		 961.16730			42731.48837		230.14400		875.00000 
 43692.65567		 305.27265			43387.38302		68.21400		324.00000 
 43692.65567		 961.16730			42731.48837		230.14400		875.00000 
 43692.65567		 305.27265			43387.38302		68.21400		324.00000 
 43692.65567		 961.16730			42731.48837		230.14400		875.00000 
 43692.65567		 305.27265			43387.38302		68.21400		324.00000 
 43692.65567		 961.16730			42731.48837		230.14400		875.00000 
 43692.65567		 305.27265			43387.38302		68.21400		324.00000 
 43692.65567		 961.16730			42731.48837		230.14400		875.00000 
 43692.65567		 305.27265			43387.38302		68.21400		324.00000 
 43692.65567		 961.16730			42731.48837		230.14400		875.00000 
 43692.65567		 305.27265			43387.38302		68.21400		324.00000 
 43692.65567		 961.16730			42731.48837		230.14400		875.00000 
 43692.65567		 305.27265			43387.38302		68.21400		324.00000 
 43692.65567		 961.16730			42731.48837		230.14400		875.00000 
 43692.65567		 305.27265			43387.38302		68.21400		324.00000 
 43692.65567		 961.16730			42731.48837		230.14400		875.00000 
 43692.65567		 305.27265			43387.38302		68.21400		324.00000 
 43692.65567		 961.16730			42731.48837		230.14400		875.00000 
 43692.65567		 305.27265			43387.38302		68.21400		324.00000 
 43692.65567		 961.16730			42731.48837		230.14400		875.00000 
 43692.65567		 305.27265			43387.38302		68.21400		324.00000 
 43692.65567		 961.16730			42731.48837		230.14400		875.00000 
 43692.65567		 305.27265			43387.38302		68.21400		324.00000 
 43692.65567		 961.16730			42731.48837		230.14400		875.00000 
 43692.65567		 305.27265			43387.38302		68.21400		324.00000 
 43692.65567		 961.16730			42731.48837		230.14400		875.00000 
 43692.65567		 305.27265			43387.38302		68.21400		324.00000 
 43692.65567		 961.16730			42731.48837		230.14400		875.00000 
 43692.65567		 305.27265			43387.38302		68.21400		324.00000 
 43692.65567		 961.16730			42731.48837		230.14400		875.00000 
 43692.65567		 305.27265			43387.38302		68.21400		324.00000 
 43692.65567		 961.16730			42731.48837		230.14400		875.00000 
 43692.65567		 305.27265			43387.38302		68.21400		324.00000 
 43692.65567		 961.16730			42731.48837		230.14400		875.00000 
 43692.65567		 305.27265			43387.38302		68.21400		324.00000 
 43692.65567		 961.16730			42731.48837		230.14400		875.00000 
 43692.65567		 305.27265			43387.38302		68.21400		324.00000 
 43692.65567		 961.16730			42731.48837		229.54400		875.00000 
 43692.65567		 305.27265			43387.38302		68.21400		324.00000 
 43692.65567		 961.16730			42731.48837		229.54400		875.00000 
 43692.65567		 305.27265			43387.38302		68.21400		324.00000 
 43692.65567		 961.16730			42731.48837		229.54400		875.00000 
 43692.65567		 305.27265			43387.38302		68.21400		324.00000 
 43692.65567		 961.16730			42731.48837		229.54400		875.00000 
 43692.65567		 305.27265			43387.38302		68.21400		324.00000 
 43692.65567		 961.16730			42731.48837		229.54400		875.00000 
 43692.65567		 305.27265			43387.38302		68.21400		324.00000 
 43692.65567		 961.16730			42731.48837		229.54400		875.00000 
 43692.65567		 305.27265			43387.38302		68.21400		324.00000 
 43692.65567		 961.16730			42731.48837		229.54400		875.00000 
 43692.65567		 305.27265			43387.38302		68.21400		324.00000 
 43692.65567		 961.16730			42731.48837		229.54400		875.00000 
 43692.65567		 305.27265			43387.38302		68.21400		324.00000 
 43692.65567		 961.16730			42731.48837		229.54400		875.00000 
 43692.65567		 305.27265			43387.38302		68.21400		324.00000 
 43692.65567		 961.16730			42731.48837		229.54400		875.00000 
 43692.65567		 305.27265			43387.38302		68.21400		324.00000 
 43692.65567		 961.16730			42731.48837		229.54400		875.00000 
 43692.65567		 305.27265			43387.38302		68.21400		324.00000 
 43692.65567		 961.16730			42731.48837		229.54400		875.00000 
 43692.65567		 305.27265			43387.38302		68.21400		324.00000 
 43692.65567		 961.16730			42731.48837		229.54400		875.00000 
 43692.65567		 305.27265			43387.38302		68.21400		324.00000 
 43692.65567		 961.16730			42731.48837		229.54400		875.00000 
 43692.65567		 305.27265			43387.38302		68.21400		324.00000 
 43692.65567		 961.16730			42731.48837		229.54400		875.00000 
 43692.65567		 305.27265			43387.38302		68.21400		324.00000 
 43692.65567		 961.16730			42731.48837		229.54400		875.00000 
 43692.65567		 305.27265			43387.38302		68.21400		324.00000 
 43692.65567		 961.16730			42731.48837		229.54400		875.00000 
 43692.65567		 305.27265			43387.38302		68.21400		324.00000 
 43692.65567		 961.16730			42731.48837		229.54400		875.00000 
 43692.65567		 305.27265			43387.38302		68.21400		324.00000 
 43692.65567		 961.16730			42731.48837		229.54400		875.00000 
 43692.65567		 305.27265			43387.38302		68.21400		324.00000 
 43692.65567		 961.16730			42731.48837		229.54400		875.00000 
 43692.65567		 305.27265			43387.38302		68.21400		324.00000 
 43692.65567		 961.16730			42731.48837		229.54400		875.00000 
 43692.65567		 305.27265			43387.38302		68.21400		324.00000 
 43692.65567		 961.16730			42731.48837		229.54400		875.00000 
 43692.65567		 305.27265			43387.38302		68.21400		324.00000 
 43692.65567		 961.16730			42731.48837		229.54400		875.00000 
 43692.65567		 305.27265			43387.38302		68.21400		324.00000 
 43692.65567		 961.16730			42731.48837		229.54400		875.00000 
 43692.65567		 305.27265			43387.38302		68.21400		324.00000 
 43692.65567		 961.16730			42731.48837		229.54400		875.00000 
 43692.65567		 305.27265			43387.38302		68.21400		324.00000 
 43692.65567		 961.16730			42731.48837		229.54400		875.00000 
 43692.65567		 305.27265			43387.38302		68.21400		324.00000 
 43692.65567		 961.16730			42731.48837		229.54400		875.00000 
 43692.65567		 305.27265			43387.38302		68.21400		324.00000 
 43692.65567		 961.16730			42731.48837		229.54400		875.00000 
 43692.65567		 305.27265			43387.38302		68.21400		324.00000 
 43692.65567		 961.16730			42731.48837		229.54400		875.00000 
 43692.65567		 305.27265			43387.38302		68.21400		324.00000 
 43692.65567		 961.16730			42731.48837		229.54400		875.00000 
 43692.65567		 305.27265			43387.38302		68.21400		324.00000 
 43692.65567		 961.16730			42731.48837		229.54400		875.00000 
 43692.65567		 305.27265			43387.38302		68.21400		324.00000 
 43692.65567		 961.16730			42731.48837		229.54400		875.00000 
 43692.65567		 305.27265			43387.38302		68.21400		324.00000 
 43692.65567		 961.16730			42731.48837		229.54400		875.00000 
 43692.65567		 305.27265			43387.38302		68.21400		324.00000 
 43692.65567		 961.16730			42731.48837		229.54400		875.00000 
 43692.65567		 305.27265			43387.38302		68.21400		324.00000 
 43692.65567		 961.16730			42731.48837		229.54400		875.00000 
 43692.65567		 305.27265			43387.38302		68.21400		324.00000 
 43692.65567		 961.16730			42731.48837		229.54400		875.00000 
 43692.65567		 305.27265			43387.38302		68.21400		324.00000 
 43692.65567		 961.16730			42731.48837		229.54400		875.00000 
 43692.65567		 305.27265			43387.38302		68.21400		324.00000 
 43692.65567		 961.16730			42731.48837		229.54400		875.00000 
 43692.65567		 305.27265			43387.38302		68.21400		324.00000 
 43692.65567		 961.16730			42731.48837		229.54400		875.00000 
 43692.65567		 305.27265			43387.38302		68.21400		324.00000 
 43692.65567		 961.16730			42731.48837		229.54400		875.00000 
 43692.65567		 305.27265			43387.38302		68.21400		324.00000 
 43692.65567		 961.16730			42731.48837		229.54400		875.00000 
 43692.65567		 305.27265			43387.38302		68.21400		324.00000 
 43692.65567		 961.16730			42731.48837		229.54400		875.00000 
 43692.65567		 305.27265			43387.38302		68.21400		324.00000 
 43692.65567		 961.16730			42731.48837		229.54400		875.00000 
 43692.65567		 305.27265			43387.38302		68.21400		324.00000 
 43692.65567		 961.16730			42731.48837		229.54400		875.00000 
 43692.65567		 305.27265			43387.38302		68.21400		324.00000 
 43692.65567		 961.16730			42731.48837		229.54400		875.00000 
 43692.65567		 305.27265			43387.38302		68.21400		324.00000 
 43692.65567		 961.16730			42731.48837		229.54400		875.00000 
 43692.65567		 305.27265			43387.38302		68.21400		324.00000 
 43692.65567		 961.16730			42731.48837		229.54400		875.00000 
 43692.65567		 305.27265			43387.38302		68.21400		324.00000 
 43692.65567		 961.16730			42731.48837		229.54400		875.00000 
 43692.65567		 305.27265			43387.38302		68.21400		324.00000 
 43692.65567		 961.16730			42731.48837		229.54400		875.00000 
 43692.65567		 305.27265			43387.38302		68.21400		324.00000 
 43692.65567		 961.16730			42731.48837		229.54400		875.00000 
 43692.65567		 305.27265			43387.38302		68.21400		324.00000 
 43692.65567		 961.16730			42731.48837		229.54400		875.00000 
 43692.65567		 305.27265			43387.38302		68.21400		324.00000 
 43692.65567		 961.16730			42731.48837		229.54400		875.00000 
 43692.65567		 305.27265			43387.38302		68.21400		324.00000 
 43692.65567		 961.16730			42731.48837		229.54400		875.00000 
 43692.65567		 305.27265			43387.38302		68.21400		324.00000 
 43692.65567		 961.16730			42731.48837		229.54400		875.00000 
 43692.65567		 305.27265			43387.38302		68.21400		324.00000 
 43692.65567		 961.16730			42731.48837		229.54400		875.00000 
 43692.65567		 305.27265			43387.38302		68.21400		324.00000 
 43692.65567		 961.16730			42731.48837		229.54400		875.00000 
 43692.65567		 305.27265			43387.38302		68.21400		324.00000 
 43692.65567		 961.16730			42731.48837		229.54400		875.00000 
 43692.65567		 305.27265			43387.38302		68.21400		324.00000 
 43692.65567		 961.16730			42731.48837		229.54400		875.00000 
 43692.65567		 305.27265			43387.38302		68.21400		324.00000 
 43692.65567		 961.16730			42731.48837		229.54400		875.00000 
 43692.65567		 305.27265			43387.38302		68.21400		324.00000 
 43692.65567		 961.16730			42731.48837		229.54400		875.00000 
 43692.65567		 305.27265			43387.38302		68.21400		324.00000 
 43692.65567		 961.16730			42731.48837		229.54400		875.00000 
 43692.65567		 305.27265			43387.38302		68.21400		324.00000 
 43692.65567		 961.16730			42731.48837		229.54400		875.00000 
 43692.65567		 305.27265			43387.38302		68.21400		324.00000 
 43692.65567		 961.16730			42731.48837		229.54400		875.00000 
 43692.65567		 305.27265			43387.38302		68.21400		324.00000 
 43692.65567		 961.16730			42731.48837		229.54400		875.00000 
 43692.65567		 305.27265			43387.38302		68.21400		324.00000 
 43692.65567		 961.16730			42731.48837		229.54400		875.00000 
 43692.65567		 305.27265			43387.38302		68.21400		324.00000 
 43692.65567		 961.16730			42731.48837		229.54400		875.00000 
 43692.65567		 305.27265			43387.38302		68.21400		324.00000 
 43692.65567		 961.16730			42731.48837		229.54400		875.00000 
 43692.65567		 305.27265			43387.38302		68.21400		324.00000 
 43692.65567		 961.16730			42731.48837		229.54400		875.00000 
 43692.65567		 305.27265			43387.38302		68.21400		324.00000 
 43692.65567		 961.16730			42731.48837		229.54400		875.00000 
 43692.65567		 305.27265			43387.38302		68.21400		324.00000 
 43692.65567		 961.16730			42731.48837		229.54400		875.00000 
 43692.65567		 305.27265			43387.38302		68.21400		324.00000 
 43692.65567		 961.16730			42731.48837		229.54400		875.00000 
 43692.65567		 305.27265			43387.38302		68.21400		324.00000 
 43692.65567		 961.16730			42731.48837		229.54400		875.00000 
 43692.65567		 305.27265			43387.38302		68.21400		324.00000 
 43692.65567		 961.16730			42731.48837		229.54400		875.00000 
 43692.65567		 305.27265			43387.38302		68.21400		324.00000 
 43692.65567		 961.16730			42731.48837		229.54400		875.00000 
 43692.65567		 305.27265			43387.38302		68.21400		324.00000 
 43692.65567		 961.16730			42731.48837		229.54400		875.00000 
 43692.65567		 305.27265			43387.38302		68.21400		324.00000 
 43692.65567		 961.16730			42731.48837		229.54400		875.00000 
 43692.65567		 305.27265			43387.38302		68.21400		324.00000 
 43692.65567		 961.16730			42731.48837		229.54400		875.00000 
 43692.65567		 305.27265			43387.38302		68.21400		324.00000 
 43692.65567		 961.16730			42731.48837		229.54400		875.00000 
 43692.65567		 305.27265			43387.38302		68.21400		324.00000 
 43692.65567		 961.16730			42731.48837		229.54400		875.00000 
 43692.65567		 305.27265			43387.38302		68.21400		324.00000 
 43692.65567		 961.16730			42731.48837		229.54400		875.00000 
 43692.65567		 305.27265			43387.38302		68.21400		324.00000 
 43692.65567		 961.16730			42731.48837		229.54400		875.00000 
 43692.65567		 305.27265			43387.38302		68.21400		324.00000 
 43692.65567		 961.16730			42731.48837		229.54400		875.00000 
 43692.65567		 305.27265			43387.38302		68.21400		324.00000 
 43692.65567		 961.16730			42731.48837		229.54400		875.00000 
 43692.65567		 305.27265			43387.38302		68.21400		324.00000 
 43692.65567		 961.16730			42731.48837		229.54400		875.00000 
 43692.65567		 305.27265			43387.38302		68.21400		324.00000 
 43692.65567		 961.16730			42731.48837		229.54400		875.00000 
 43692.65567		 305.27265			43387.38302		68.21400		324.00000 
 43692.65567		 961.16730			42731.48837		229.54400		875.00000 
 43692.65567		 305.27265			43387.38302		68.21400		324.00000 
 43692.65567		 961.16730			42731.48837		229.54400		875.00000 
 43692.65567		 305.27265			43387.38302		68.21400		324.00000 
 43692.65567		 961.16730			42731.48837		229.54400		875.00000 
 43692.65567		 305.27265			43387.38302		68.21400		324.00000 
 43692.65567		 961.16730			42731.48837		229.54400		875.00000 
 43692.65567		 305.27265			43387.38302		68.21400		324.00000 
 43692.65567		 961.16730			42731.48837		229.54400		875.00000 
 43692.65567		 305.27265			43387.38302		68.21400		324.00000 
 43692.65567		 961.16730			42731.48837		229.54400		875.00000 
 43692.65567		 305.27265			43387.38302		68.21400		324.00000 
 43692.65567		 961.16730			42731.48837		229.54400		875.00000 
 43692.65567		 305.27265			43387.38302		68.21400		324.00000 
 43692.65567		 961.16730			42731.48837		229.54400		875.00000 
 43692.65567		 305.27265			43387.38302		68.21400		324.00000 
 43692.65567		 961.16730			42731.48837		229.54400		875.00000 
 43692.65567		 305.27265			43387.38302		68.21400		324.00000 
 43692.65567		 961.16730			42731.48837		229.54400		875.00000 
 43692.65567		 305.27265			43387.38302		68.21400		324.00000 
 43692.65567		 961.16730			42731.48837		229.54400		875.00000 
 43692.65567		 305.27265			43387.38302		68.21400		324.00000 
 43692.65567		 961.16730			42731.48837		229.54400		875.00000 
 43692.65567		 305.27265			43387.38302		68.21400		324.00000 
 43692.65567		 961.16730			42731.48837		229.54400		875.00000 
 43692.65567		 305.27265			43387.38302		68.21400		324.00000 
 43692.65567		 961.16730			42731.48837		229.54400		875.00000 
 43692.65567		 305.27265			43387.38302		68.21400		324.00000 
 43692.65567		 961.16730			42731.48837		229.54400		875.00000 
 43692.65567		 305.27265			43387.38302		68.21400		324.00000 
 43692.65567		 961.16730			42731.48837		229.54400		875.00000 
 43692.65567		 305.27265			43387.38302		68.21400		324.00000 
 43692.65567		 961.16730			42731.48837		229.54400		875.00000 
 43692.65567		 305.27265			43387.38302		68.21400		324.00000 
 43692.65567		 961.16730			42731.48837		229.54400		875.00000 
 43692.65567		 305.27265			43387.38302		68.21400		324.00000 
 43692.65567		 961.16730			42731.48837		229.54400		875.00000 
 43692.65567		 305.27265			43387.38302		68.21400		324.00000 
 43692.65567		 961.16730			42731.48837		229.54400		875.00000 
 43692.65567		 305.27265			43387.38302		68.21400		324.00000 
 43692.65567		 961.16730			42731.48837		229.54400		875.00000 
 43692.65567		 305.27265			43387.38302		68.21400		324.00000 
 43692.65567		 961.16730			42731.48837		229.54400		875.00000 
 43692.65567		 305.27265			43387.38302		68.21400		324.00000 
 43692.65567		 961.16730			42731.48837		229.54400		875.00000 
 43692.65567		 305.27265			43387.38302		68.21400		324.00000 
 43692.65567		 961.16730			42731.48837		229.54400		875.00000 
 43692.65567		 305.27265			43387.38302		68.21400		324.00000 
 43692.65567		 961.16730			42731.48837		229.54400		875.00000 
 43692.65567		 305.27265			43387.38302		68.21400		324.00000 
 43692.65567		 961.16730			42731.48837		229.54400		875.00000 
 43692.65567		 305.27265			43387.38302		68.21400		324.00000 
 43692.65567		 961.16730			42731.48837		229.54400		875.00000 
 43692.65567		 305.27265			43387.38302		68.21400		324.00000 
 43692.65567		 961.16730			42731.48837		229.54400		875.00000 
 43692.65567		 305.27265			43387.38302		68.21400		324.00000 
 43692.65567		 961.16730			42731.48837		229.54400		875.00000 
 43692.65567		 305.27265			43387.38302		68.21400		324.00000 
 43692.65567		 961.16730			42731.48837		229.54400		875.00000 
 43692.65567		 305.27265			43387.38302		68.21400		324.00000 
 43692.65567		 961.16730			42731.48837		229.54400		875.00000 
 43692.65567		 305.27265			43387.38302		68.21400		324.00000 
 43692.65567		 961.16730			42731.48837		229.54400		875.00000 
 43692.65567		 305.27265			43387.38302		68.21400		324.00000 
 43692.65567		 961.16730			42731.48837		229.54400		875.00000 
 43692.65567		 305.27265			43387.38302		68.21400		324.00000 
 43692.65567		 961.16730			42731.48837		229.54400		875.00000 
 43692.65567		 305.27265			43387.38302		68.21400		324.00000 
 43692.65567		 961.16730			42731.48837		229.54400		875.00000 
 43692.65567		 305.27265			43387.38302		68.21400		324.00000 
 43692.65567		 961.16730			42731.48837		229.54400		875.00000 
 43692.65567		 305.27265			43387.38302		68.21400		324.00000 
 43692.65567		 961.16730			42731.48837		229.54400		875.00000 
 43692.65567		 305.27265			43387.38302		68.21400		324.00000 
 43692.65567		 961.16730			42731.48837		229.54400		875.00000 
 43692.65567		 305.27265			43387.38302		68.21400		324.00000 
 43692.65567		 961.16730			42731.48837		229.54400		875.00000 
 43692.65567		 305.27265			43387.38302		68.21400		324.00000 
 43692.65567		 961.16730			42731.48837		229.54400		875.00000 
 43692.65567		 305.27265			43387.38302		68.21400		324.00000 
 43692.65567		 961.16730			42731.48837		229.54400		875.00000 
 43692.65567		 305.27265			43387.38302		68.21400		324.00000 
 43692.65567		 961.16730			42731.48837		229.54400		875.00000 
 43692.65567		 305.27265			43387.38302		68.21400		324.00000 
 43692.65567		 961.16730			42731.48837		229.54400		875.00000 
 43692.65567		 305.27265			43387.38302		68.21400		324.00000 
 43692.65567		 961.16730			42731.48837		229.54400		875.00000 
 43692.65567		 305.27265			43387.38302		68.21400		324.00000 
 43692.65567		 961.16730			42731.48837		229.54400		875.00000 
 43692.65567		 305.27265			43387.38302		68.21400		324.00000 
 43692.65567		 961.16730			42731.48837		229.54400		875.00000 
 43692.65567		 305.27265			43387.38302		68.21400		324.00000 
 43692.65567		 961.16730			42731.48837		229.54400		875.00000 
 43692.65567		 305.27265			43387.38302		68.21400		324.00000 
 43692.65567		 961.16730			42731.48837		229.54400		875.00000 
 43692.65567		 305.27265			43387.38302		68.21400		324.00000 
 43692.65567		 961.16730			42731.48837		229.54400		875.00000 
 43692.65567		 305.27265			43387.38302		68.21400		324.00000 
 43692.65567		 961.16730			42731.48837		229.54400		875.00000 
 43692.65567		 305.27265			43387.38302		68.21400		324.00000 
 43692.65567		 961.16730			42731.48837		229.54400		875.00000 
 43692.65567		 305.27265			43387.38302		68.21400		324.00000 
 43692.65567		 961.16730			42731.48837		229.54400		875.00000 
 43692.65567		 305.27265			43387.38302		68.21400		324.00000 
 43692.65567		 961.16730			42731.48837		229.54400		875.00000 
 43692.65567		 305.27265			43387.38302		68.21400		324.00000 
 43692.65567		 961.16730			42731.48837		229.54400		875.00000 
 43692.65567		 305.27265			43387.38302		68.21400		324.00000 
 43692.65567		 961.16730			42731.48837		229.54400		875.00000 
 43692.65567		 305.27265			43387.38302		68.21400		324.00000 
 43692.65567		 961.16730			42731.48837		229.54400		875.00000 
 43692.65567		 305.27265			43387.38302		68.21400		324.00000 
 43692.65567		 961.16730			42731.48837		229.54400		875.00000 
 43692.65567		 305.27265			43387.38302		68.21400		324.00000 
 43692.65567		 961.16730			42731.48837		229.54400		875.00000 
 43692.65567		 305.27265			43387.38302		68.21400		324.00000 
 43692.65567		 961.16730			42731.48837		229.54400		875.00000 
 43692.65567		 305.27265			43387.38302		68.21400		324.00000 
 43692.65567		 961.16730			42731.48837		229.54400		875.00000 
 43692.65567		 305.27265			43387.38302		68.21400		324.00000 
 43692.65567		 961.16730			42731.48837		229.54400		875.00000 
 43692.65567		 305.27265			43387.38302		68.21400		324.00000 
 43692.65567		 961.16730			42731.48837		229.54400		875.00000 
 43692.65567		 305.27265			43387.38302		68.21400		324.00000 
 43692.65567		 961.16730			42731.48837		229.54400		875.00000 
 43692.65567		 305.27265			43387.38302		68.21400		324.00000 
 43692.65567		 961.16730			42731.48837		229.54400		875.00000 
 43692.65567		 305.27265			43387.38302		68.21400		324.00000 
 43692.65567		 961.16730			42731.48837		229.54400		875.00000 
 43692.65567		 305.27265			43387.38302		68.21400		324.00000 
 43692.65567		 961.16730			42731.48837		229.54400		875.00000 
 43692.65567		 305.27265			43387.38302		68.21400		324.00000 
 43692.65567		 961.16730			42731.48837		229.54400		875.00000 
 43692.65567		 305.27265			43387.38302		68.21400		324.00000 
 43692.65567		 961.16730			42731.48837		229.54400		875.00000 
 43692.65567		 305.27265			43387.38302		68.21400		324.00000 
 43692.65567		 961.16730			42731.48837		229.54400		875.00000 
 43692.65567		 305.27265			43387.38302		68.21400		324.00000 
 43692.65567		 961.16730			42731.48837		229.54400		875.00000 
 43692.65567		 305.27265			43387.38302		68.21400		324.00000 
 43692.65567		 961.16730			42731.48837		229.54400		875.00000 
 43692.65567		 305.27265			43387.38302		68.21400		324.00000 
 43692.65567		 961.16730			42731.48837		229.54400		875.00000 
 43692.65567		 305.27265			43387.38302		68.21400		324.00000 
 43692.65567		 961.16730			42731.48837		229.54400		875.00000 
 43692.65567		 305.27265			43387.38302		68.21400		324.00000 
 43692.65567		 961.16730			42731.48837		229.54400		875.00000 
 43692.65567		 305.27265			43387.38302		68.21400		324.00000 
 43692.65567		 961.16730			42731.48837		229.54400		875.00000 
 43692.65567		 305.27265			43387.38302		68.21400		324.00000 
 43692.65567		 961.16730			42731.48837		229.54400		875.00000 
 43692.65567		 305.27265			43387.38302		68.21400		324.00000 
 43692.65567		 961.16730			42731.48837		229.54400		875.00000 
 43692.65567		 305.27265			43387.38302		68.21400		324.00000 
 43692.65567		 961.16730			42731.48837		229.54400		875.00000 
 43692.65567		 305.27265			43387.38302		68.21400		324.00000 
 43692.65567		 961.16730			42731.48837		229.54400		875.00000 
 43692.65567		 305.27265			43387.38302		68.21400		324.00000 
 43692.65567		 961.16730			42731.48837		229.54400		875.00000 
 43692.65567		 305.27265			43387.38302		68.21400		324.00000 
 43692.65567		 961.16730			42731.48837		229.54400		875.00000 
 43692.65567		 305.27265			43387.38302		68.21400		324.00000 
 43692.65567		 961.16730			42731.48837		229.54400		875.00000 
 43692.65567		 305.27265			43387.38302		68.21400		324.00000 
 43692.65567		 961.16730			42731.48837		229.54400		875.00000 
 43692.65567		 305.27265			43387.38302		68.21400		324.00000 
 43692.65567		 961.16730			42731.48837		229.54400		875.00000 
 43692.65567		 305.27265			43387.38302		68.21400		324.00000 
 43692.65567		 961.16730			42731.48837		229.54400		875.00000 
 43692.65567		 305.27265			43387.38302		68.21400		324.00000 
 43692.65567		 961.16730			42731.48837		229.54400		875.00000 
 43692.65567		 305.27265			43387.38302		68.21400		324.00000 
 43692.65567		 961.16730			42731.48837		229.54400		875.00000 
 43692.65567		 305.27265			43387.38302		68.21400		324.00000 
 43692.65567		 961.16730			42731.48837		229.54400		875.00000 
 43692.65567		 305.27265			43387.38302		68.21400		324.00000 
 43692.65567		 961.16730			42731.48837		229.54400		875.00000 
 43692.65567		 305.27265			43387.38302		68.21400		324.00000 
 43692.65567		 961.16730			42731.48837		229.54400		875.00000 
 43692.65567		 305.27265			43387.38302		68.21400		324.00000 
 43692.65567		 961.16730			42731.48837		229.54400		875.00000 
 43692.65567		 305.27265			43387.38302		68.21400		324.00000 
 43692.65567		 961.16730			42731.48837		229.54400		875.00000 
 43692.65567		 305.27265			43387.38302		68.21400		324.00000 
 43692.65567		 961.16730			42731.48837		229.54400		875.00000 
 43692.65567		 305.27265			43387.38302		68.21400		324.00000 
 43692.65567		 961.16730			42731.48837		229.54400		875.00000 
 43692.65567		 305.27265			43387.38302		68.21400		324.00000 
 43692.65567		 961.16730			42731.48837		229.54400		875.00000 
 43692.65567		 305.27265			43387.38302		68.21400		324.00000 
 43692.65567		 961.16730			42731.48837		229.54400		875.00000 
 43692.65567		 305.27265			43387.38302		68.21400		324.00000 
 43692.65567		 961.16730			42731.48837		229.54400		875.00000 
 43692.65567		 305.27265			43387.38302		68.21400		324.00000 
 43692.65567		 961.16730			42731.48837		229.54400		875.00000 
 43692.65567		 305.27265			43387.38302		68.21400		324.00000 
 43692.65567		 961.16730			42731.48837		229.54400		875.00000 
 43692.65567		 305.27265			43387.38302		68.21400		324.00000 
 43692.65567		 961.16730			42731.48837		229.54400		875.00000 
 43692.65567		 305.27265			43387.38302		68.21400		324.00000 
 43692.65567		 961.16730			42731.48837		229.54400		875.00000 
 43692.65567		 305.27265			43387.38302		68.21400		324.00000 
 43692.65567		 961.16730			42731.48837		229.54400		875.00000 
 43692.65567		 305.27265			43387.38302		68.21400		324.00000 
 43692.65567		 961.16730			42731.48837		229.54400		875.00000 
 43692.65567		 305.27265			43387.38302		68.21400		324.00000 
 43692.65567		 961.16730			42731.48837		229.54400		875.00000 
 43692.65567		 305.27265			43387.38302		68.21400		324.00000 
 43692.65567		 961.16730			42731.48837		229.54400		875.00000 
 43692.65567		 305.27265			43387.38302		68.21400		324.00000 
 43692.65567		 961.16730			42731.48837		229.54400		875.00000 
 43692.65567		 305.27265			43387.38302		68.21400		324.00000 
 43692.65567		 961.16730			42731.48837		229.54400		875.00000 
 43692.65567		 305.27265			43387.38302		68.21400		324.00000 
 43692.65567		 961.16730			42731.48837		229.54400		875.00000 
 43692.65567		 305.27265			43387.38302		68.21400		324.00000 
 43692.65567		 961.16730			42731.48837		229.54400		875.00000 
 43692.65567		 305.27265			43387.38302		68.21400		324.00000 
 43692.65567		 961.16730			42731.48837		229.54400		875.00000 
 43692.65567		 305.27265			43387.38302		68.21400		324.00000 
 43692.65567		 961.16730			42731.48837		229.54400		875.00000 
 43692.65567		 305.27265			43387.38302		68.21400		324.00000 
 43692.65567		 961.16730			42731.48837		229.54400		875.00000 
 43692.65567		 305.27265			43387.38302		68.21400		324.00000 
 43692.65567		 961.16730			42731.48837		229.54400		875.00000 
 43692.65567		 305.27265			43387.38302		68.21400		324.00000 
 43692.65567		 961.16730			42731.48837		229.54400		875.00000 
 43692.65567		 305.27265			43387.38302		68.21400		324.00000 
 43692.65567		 961.16730			42731.48837		229.54400		875.00000 
 43692.65567		 305.27265			43387.38302		68.21400		324.00000 
 43692.65567		 961.16730			42731.48837		229.54400		875.00000 
 43692.65567		 305.27265			43387.38302		68.21400		324.00000 
 43692.65567		 961.16730			42731.48837		229.54400		875.00000 
 43692.65567		 305.27265			43387.38302		68.21400		324.00000 
 43692.65567		 961.16730			42731.48837		229.54400		875.00000 
 43692.65567		 305.27265			43387.38302		68.21400		324.00000 
 43692.65567		 961.16730			42731.48837		229.54400		875.00000 
 43692.65567		 305.27265			43387.38302		68.21400		324.00000 
 43692.65567		 961.16730			42731.48837		229.54400		875.00000 
 43692.65567		 305.27265			43387.38302		68.21400		324.00000 
 43692.65567		 961.16730			42731.48837		229.54400		875.00000 
 43692.65567		 305.27265			43387.38302		68.21400		324.00000 
 43692.65567		 961.16730			42731.48837		229.54400		875.00000 
 43692.65567		 305.27265			43387.38302		68.21400		324.00000 
 43692.65567		 961.16730			42731.48837		229.54400		875.00000 
 43692.65567		 305.27265			43387.38302		68.21400		324.00000 
 43692.65567		 961.16730			42731.48837		229.54400		875.00000 
 43692.65567		 305.27265			43387.38302		68.21400		324.00000 
 43692.65567		 961.16730			42731.48837		229.54400		875.00000 
 43692.65567		 305.27265			43387.38302		68.21400		324.00000 
 43692.65567		 961.16730			42731.48837		229.54400		875.00000 
 43692.65567		 305.27265			43387.38302		68.21400		324.00000 
 43692.65567		 961.16730			42731.48837		229.54400		875.00000 
 43692.65567		 305.27265			43387.38302		68.21400		324.00000 
 43692.65567		 961.16730			42731.48837		229.54400		875.00000 
 43692.65567		 305.27265			43387.38302		68.21400		324.00000 
 43692.65567		 961.16730			42731.48837		229.54400		875.00000 
 43692.65567		 305.27265			43387.38302		68.21400		324.00000 
 43692.65567		 961.16730			42731.48837		229.54400		875.00000 
 43692.65567		 305.27265			43387.38302		68.21400		324.00000 
 43692.65567		 961.16730			42731.48837		229.54400		875.00000 
 43692.65567		 305.27265			43387.38302		68.21400		324.00000 
 43692.65567		 961.16730			42731.48837		229.54400		875.00000 
 43692.65567		 305.27265			43387.38302		68.21400		324.00000 
 43692.65567		 961.16730			42731.48837		229.54400		875.00000 
 43692.65567		 305.27265			43387.38302		68.21400		324.00000 
 43692.65567		 961.16730			42731.48837		229.54400		875.00000 
 43692.65567		 305.27265			43387.38302		68.21400		324.00000 
 43692.65567		 961.16730			42731.48837		229.54400		875.00000 
 43692.65567		 305.27265			43387.38302		68.21400		324.00000 
 43692.65567		 961.16730			42731.48837		229.54400		875.00000 
 43692.65567		 305.27265			43387.38302		68.21400		324.00000 
 43692.65567		 961.16730			42731.48837		229.54400		875.00000 
 43692.65567		 305.27265			43387.38302		68.21400		324.00000 
 43692.65567		 961.16730			42731.48837		229.54400		875.00000 
 43692.65567		 305.27265			43387.38302		68.21400		324.00000 
 43692.65567		 961.16730			42731.48837		229.54400		875.00000 
 43692.65567		 305.27265			43387.38302		68.21400		324.00000 
 43692.65567		 961.16730			42731.48837		229.54400		875.00000 
 43692.65567		 305.27265			43387.38302		68.21400		324.00000 
 43692.65567		 961.16730			42731.48837		229.54400		875.00000 
 43692.65567		 305.27265			43387.38302		68.21400		324.00000 
 43692.65567		 961.16730			42731.48837		229.54400		875.00000 
 43692.65567		 305.27265			43387.38302		68.21400		324.00000 
 43692.65567		 961.16730			42731.48837		229.54400		875.00000 
 43692.65567		 305.27265			43387.38302		68.21400		324.00000 
 43692.65567		 961.16730			42731.48837		229.54400		875.00000 
 43692.65567		 305.27265			43387.38302		68.21400		324.00000 
 43692.65567		 961.16730			42731.48837		229.54400		875.00000 
 43692.65567		 305.27265			43387.38302		68.21400		324.00000 
 43692.65567		 961.16730			42731.48837		229.54400		875.00000 
 43692.65567		 305.27265			43387.38302		68.21400		324.00000 
 43692.65567		 961.16730			42731.48837		229.54400		875.00000 
 43692.65567		 305.27265			43387.38302		68.21400		324.00000 
 43692.65567		 961.16730			42731.48837		229.54400		875.00000 
 43692.65567		 305.27265			43387.38302		68.21400		324.00000 
 43692.65567		 961.16730			42731.48837		229.54400		875.00000 
 43692.65567		 305.27265			43387.38302		68.21400		324.00000 
 43692.65567		 961.16730			42731.48837		229.54400		875.00000 
 43692.65567		 305.27265			43387.38302		68.21400		324.00000 
 43692.65567		 961.16730			42731.48837		229.54400		875.00000 
 43692.65567		 305.27265			43387.38302		68.21400		324.00000 
 43692.65567		 961.16730			42731.48837		229.54400		875.00000 
 43692.65567		 305.27265			43387.38302		68.21400		324.00000 
 43692.65567		 961.16730			42731.48837		229.54400		875.00000 
 43692.65567		 305.27265			43387.38302		68.21400		324.00000 
 43692.65567		 961.16730			42731.48837		229.54400		875.00000 
 43692.65567		 305.27265			43387.38302		68.21400		324.00000 
 43692.65567		 961.16730			42731.48837		229.54400		875.00000 
 43692.65567		 305.27265			43387.38302		68.21400		324.00000 
 43692.65567		 961.16730			42731.48837		229.54400		875.00000 
 43692.65567		 305.27265			43387.38302		68.21400		324.00000 
 43692.65567		 961.16730			42731.48837		229.54400		875.00000 
 43692.65567		 305.27265			43387.38302		68.21400		324.00000 
 43692.65567		 961.16730			42731.48837		229.54400		875.00000 
 43692.65567		 305.27265			43387.38302		68.21400		324.00000 
 43692.65567		 961.16730			42731.48837		229.54400		875.00000 
 43692.65567		 305.27265			43387.38302		68.21400		324.00000 
 43692.65567		 961.16730			42731.48837		229.54400		875.00000 
 43692.65567		 305.27265			43387.38302		68.21400		324.00000 
 43692.65567		 961.16730			42731.48837		229.54400		875.00000 
 43692.65567		 305.27265			43387.38302		68.21400		324.00000 
 43692.65567		 961.16730			42731.48837		229.54400		875.00000 
 43692.65567		 305.27265			43387.38302		68.21400		324.00000 
 43692.65567		 961.16730			42731.48837		229.54400		875.00000 
 43692.65567		 305.27265			43387.38302		68.21400		324.00000 
 43692.65567		 961.16730			42731.48837		229.54400		875.00000 
 43692.65567		 305.27265			43387.38302		68.21400		324.00000 
 43692.65567		 961.16730			42731.48837		229.54400		875.00000 
 43692.65567		 305.27265			43387.38302		68.21400		324.00000 
 43692.65567		 961.16730			42731.48837		229.54400		875.00000 
 43692.65567		 305.27265			43387.38302		68.21400		324.00000 
 43692.65567		 961.16730			42731.48837		229.54400		875.00000 
 43692.65567		 305.27265			43387.38302		68.21400		324.00000 
 43692.65567		 961.16730			42731.48837		229.54400		875.00000 
 43692.65567		 305.27265			43387.38302		68.21400		324.00000 
 43692.65567		 961.16730			42731.48837		229.54400		875.00000 
 43692.65567		 305.27265			43387.38302		68.21400		324.00000 
 43692.65567		 961.16730			42731.48837		229.54400		875.00000 
 43692.65567		 305.27265			43387.38302		68.21400		324.00000 
 43692.65567		 961.16730			42731.48837		229.54400		875.00000 
 43692.65567		 305.27265			43387.38302		68.21400		324.00000 
 43692.65567		 961.16730			42731.48837		229.54400		875.00000 
 43692.65567		 305.27265			43387.38302		68.21400		324.00000 
 43692.65567		 961.16730			42731.48837		229.54400		875.00000 
 43692.65567		 305.27265			43387.38302		68.21400		324.00000 
 43692.65567		 961.16730			42731.48837		229.54400		875.00000 
 43692.65567		 305.27265			43387.38302		68.21400		324.00000 
 43692.65567		 961.16730			42731.48837		229.54400		875.00000 
 43692.65567		 305.27265			43387.38302		68.21400		324.00000 
 43692.65567		 961.16730			42731.48837		229.54400		875.00000 
 43692.65567		 305.27265			43387.38302		68.21400		324.00000 
 43692.65567		 961.16730			42731.48837		229.54400		875.00000 
 43692.65567		 305.27265			43387.38302		68.21400		324.00000 
 43692.65567		 961.16730			42731.48837		229.54400		875.00000 
 43692.65567		 305.27265			43387.38302		68.21400		324.00000 
 43692.65567		 961.16730			42731.48837		229.54400		875.00000 
 43692.65567		 305.27265			43387.38302		68.21400		324.00000 
 43692.65567		 961.16730			42731.48837		229.54400		875.00000 
 43692.65567		 305.27265			43387.38302		68.21400		324.00000 
 43692.65567		 961.16730			42731.48837		229.54400		875.00000 
 43692.65567		 305.27265			43387.38302		68.21400		324.00000 
 43692.65567		 961.16730			42731.48837		229.54400		875.00000 
 43692.65567		 305.27265			43387.38302		68.21400		324.00000 
 43692.65567		 961.16730			42731.48837		229.54400		875.00000 
 43692.65567		 305.27265			43387.38302		68.21400		324.00000 
 43692.65567		 961.16730			42731.48837		229.54400		875.00000 
 43692.65567		 305.27265			43387.38302		68.21400		324.00000 
 43692.65567		 961.16730			42731.48837		229.54400		875.00000 
 43692.65567		 305.27265			43387.38302		68.21400		324.00000 
 43692.65567		 961.16730			42731.48837		229.54400		875.00000 
 43692.65567		 305.27265			43387.38302		68.21400		324.00000 
 43692.65567		 961.16730			42731.48837		229.54400		875.00000 
 43692.65567		 305.27265			43387.38302		68.21400		324.00000 
 43692.65567		 961.16730			42731.48837		229.54400		875.00000 
 43692.65567		 305.27265			43387.38302		68.21400		324.00000 
 43692.65567		 961.16730			42731.48837		229.54400		875.00000 
 43692.65567		 305.27265			43387.38302		68.21400		324.00000 
 43692.65567		 961.16730			42731.48837		229.54400		875.00000 
 43692.65567		 305.27265			43387.38302		68.21400		324.00000 
 43692.65567		 961.16730			42731.48837		229.54400		875.00000 
 43692.65567		 305.27265			43387.38302		68.21400		324.00000 
 43692.65567		 961.16730			42731.48837		229.54400		875.00000 
 43692.65567		 305.27265			43387.38302		68.21400		324.00000 
 43692.65567		 961.16730			42731.48837		229.54400		875.00000 
 43692.65567		 305.27265			43387.38302		68.21400		324.00000 
 43692.65567		 961.16730			42731.48837		229.54400		875.00000 
 43692.65567		 305.27265			43387.38302		68.21400		324.00000 
 43692.65567		 961.16730			42731.48837		229.54400		875.00000 
 43692.65567		 305.27265			43387.38302		68.21400		324.00000 
 43692.65567		 961.16730			42731.48837		229.54400		875.00000 
 43692.65567		 305.27265			43387.38302		68.21400		324.00000 
 43692.65567		 961.16730			42731.48837		229.54400		875.00000 
 43692.65567		 305.27265			43387.38302		68.21400		324.00000 
 43692.65567		 961.16730			42731.48837		229.54400		875.00000 
 43692.65567		 305.27265			43387.38302		68.21400		324.00000 
 43692.65567		 961.16730			42731.48837		229.54400		875.00000 
 43692.65567		 305.27265			43387.38302		68.21400		324.00000 
 43692.65567		 961.16730			42731.48837		229.54400		875.00000 
 43692.65567		 305.27265			43387.38302		68.21400		324.00000 
 43692.65567		 961.16730			42731.48837		229.54400		875.00000 
 43692.65567		 305.27265			43387.38302		68.21400		324.00000 
 43692.65567		 961.16730			42731.48837		229.54400		875.00000 
 43692.65567		 305.27265			43387.38302		68.21400		324.00000 
 43692.65567		 961.16730			42731.48837		229.54400		875.00000 
 43692.65567		 305.27265			43387.38302		68.21400		324.00000 
 43692.65567		 961.16730			42731.48837		229.54400		875.00000 
 43692.65567		 305.27265			43387.38302		68.21400		324.00000 
 43692.65567		 961.16730			42731.48837		229.54400		875.00000 
 43692.65567		 305.27265			43387.38302		68.21400		324.00000 
 43692.65567		 961.16730			42731.48837		229.54400		875.00000 
 43692.65567		 305.27265			43387.38302		68.21400		324.00000 
 43692.65567		 961.16730			42731.48837		229.54400		875.00000 
 43692.65567		 305.27265			43387.38302		68.21400		324.00000 
 43692.65567		 961.16730			42731.48837		229.54400		875.00000 
 43692.65567		 305.27265			43387.38302		68.21400		324.00000 
 43692.65567		 961.16730			42731.48837		229.54400		875.00000 
 43692.65567		 305.27265			43387.38302		68.21400		324.00000 
 43692.65567		 961.16730			42731.48837		229.54400		875.00000 
 43692.65567		 305.27265			43387.38302		68.21400		324.00000 
 43692.65567		 961.16730			42731.48837		229.54400		875.00000 
 43692.65567		 305.27265			43387.38302		68.21400		324.00000 
 43692.65567		 961.16730			42731.48837		229.54400		875.00000 
 43692.65567		 305.27265			43387.38302		68.21400		324.00000 
 43692.65567		 961.16730			42731.48837		229.54400		875.00000 
 43692.65567		 305.27265			43387.38302		70.72000		324.00000 
 43692.65567		 961.16730			42731.48837		229.54400		875.00000 
 43692.65567		 305.27265			43387.38302		70.72000		324.00000 
 43692.65567		 961.16730			42731.48837		229.54400		875.00000 
 43692.65567		 305.27265			43387.38302		70.72000		324.00000 
 43692.65567		 961.16730			42731.48837		229.54400		875.00000 
 43692.65567		 305.27265			43387.38302		70.72000		324.00000 
 43692.65567		 961.16730			42731.48837		229.54400		875.00000 
 43692.65567		 305.27265			43387.38302		70.72000		324.00000 
 43692.65567		 961.16730			42731.48837		229.54400		875.00000 
 43692.65567		 305.27265			43387.38302		70.72000		324.00000 
 43692.65567		 961.16730			42731.48837		229.54400		875.00000 
 43692.65567		 305.27265			43387.38302		70.72000		324.00000 
 43692.65567		 961.16730			42731.48837		229.54400		875.00000 
 43692.65567		 305.27265			43387.38302		70.72000		324.00000 
 43692.65567		 961.16730			42731.48837		229.54400		875.00000 
 43692.65567		 305.27265			43387.38302		70.72000		324.00000 
 43692.65567		 961.16730			42731.48837		229.54400		875.00000 
 43692.65567		 305.27265			43387.38302		70.72000		324.00000 
 43692.65567		 961.16730			42731.48837		229.54400		875.00000 
 43692.65567		 305.27265			43387.38302		70.72000		324.00000 
 43692.65567		 961.16730			42731.48837		229.54400		875.00000 
 43692.65567		 305.27265			43387.38302		70.72000		324.00000 
 43692.65567		 961.16730			42731.48837		229.54400		875.00000 
 43692.65567		 305.27265			43387.38302		70.72000		324.00000 
 43692.65567		 961.16730			42731.48837		229.54400		875.00000 
 43692.65567		 305.27265			43387.38302		70.72000		324.00000 
 43692.65567		 961.16730			42731.48837		229.54400		875.00000 
 43692.65567		 305.27265			43387.38302		70.72000		324.00000 
 43692.65567		 961.16730			42731.48837		229.54400		875.00000 
 43692.65567		 305.27265			43387.38302		70.72000		324.00000 
 43692.65567		 961.16730			42731.48837		229.54400		875.00000 
 43692.65567		 305.27265			43387.38302		70.72000		324.00000 
 43692.65567		 961.16730			42731.48837		229.54400		875.00000 
 43692.65567		 305.27265			43387.38302		70.72000		324.00000 
 43692.65567		 961.16730			42731.48837		229.54400		875.00000 
 43692.65567		 305.27265			43387.38302		70.72000		324.00000 
 43692.65567		 961.16730			42731.48837		229.54400		875.00000 
 43692.65567		 305.27265			43387.38302		70.72000		324.00000 
 43692.65567		 961.16730			42731.48837		229.54400		875.00000 
 43692.65567		 305.27265			43387.38302		70.72000		324.00000 
 43692.65567		 961.16730			42731.48837		229.54400		875.00000 
 43692.65567		 305.27265			43387.38302		70.72000		324.00000 
 43692.65567		 961.16730			42731.48837		229.54400		875.00000 
 43692.65567		 305.27265			43387.38302		70.72000		324.00000 
 43692.65567		 961.16730			42731.48837		229.54400		875.00000 
 43692.65567		 305.27265			43387.38302		70.72000		324.00000 
 43692.65567		 961.16730			42731.48837		229.54400		875.00000 
 43692.65567		 305.27265			43387.38302		70.72000		324.00000 
 43692.65567		 961.16730			42731.48837		229.54400		875.00000 
 43692.65567		 305.27265			43387.38302		70.72000		324.00000 
 43692.65567		 961.16730			42731.48837		229.54400		875.00000 
 43692.65567		 305.27265			43387.38302		70.72000		324.00000 
 43692.65567		 961.16730			42731.48837		229.54400		875.00000 
 43692.65567		 305.27265			43387.38302		70.72000		324.00000 
 43692.65567		 961.16730			42731.48837		229.54400		875.00000 
 43692.65567		 305.27265			43387.38302		70.72000		324.00000 
 43692.65567		 961.16730			42731.48837		229.54400		875.00000 
 43692.65567		 305.27265			43387.38302		70.72000		324.00000 
 43692.65567		 961.16730			42731.48837		229.54400		875.00000 
 43692.65567		 305.27265			43387.38302		70.72000		324.00000 
 43692.65567		 961.16730			42731.48837		229.54400		875.00000 
 43692.65567		 305.27265			43387.38302		70.72000		324.00000 
 43692.65567		 961.16730			42731.48837		229.54400		875.00000 
 43692.65567		 305.27265			43387.38302		70.72000		324.00000 
 43692.65567		 961.16730			42731.48837		229.54400		875.00000 
 43692.65567		 305.27265			43387.38302		70.72000		324.00000 
 43692.65567		 961.16730			42731.48837		229.54400		875.00000 
 43692.65567		 305.27265			43387.38302		70.72000		324.00000 
 43692.65567		 961.16730			42731.48837		229.54400		875.00000 
 43692.65567		 305.27265			43387.38302		70.72000		324.00000 
 43692.65567		 961.16730			42731.48837		229.54400		875.00000 
 43692.65567		 305.27265			43387.38302		70.72000		324.00000 
 43692.65567		 961.16730			42731.48837		229.54400		875.00000 
 43692.65567		 305.27265			43387.38302		70.72000		324.00000 
 43692.65567		 961.16730			42731.48837		229.54400		875.00000 
 43692.65567		 305.27265			43387.38302		70.72000		324.00000 
 43692.65567		 961.16730			42731.48837		229.54400		875.00000 
 43692.65567		 305.27265			43387.38302		70.72000		324.00000 
 43692.65567		 961.16730			42731.48837		229.54400		875.00000 
 43692.65567		 305.27265			43387.38302		70.72000		324.00000 
 43692.65567		 961.16730			42731.48837		229.54400		875.00000 
 43692.65567		 305.27265			43387.38302		70.72000		324.00000 
 43692.65567		 961.16730			42731.48837		229.54400		875.00000 
 43692.65567		 305.27265			43387.38302		70.72000		324.00000 
 43692.65567		 961.16730			42731.48837		229.54400		875.00000 
 43692.65567		 305.27265			43387.38302		70.72000		324.00000 
 43692.65567		 961.16730			42731.48837		229.54400		875.00000 
 43692.65567		 305.27265			43387.38302		70.72000		324.00000 
 43692.65567		 961.16730			42731.48837		229.54400		875.00000 
 43692.65567		 305.27265			43387.38302		70.72000		324.00000 
 43692.65567		 961.16730			42731.48837		229.54400		875.00000 
 43692.65567		 305.27265			43387.38302		70.72000		324.00000 
 43692.65567		 961.16730			42731.48837		229.54400		875.00000 
 43692.65567		 305.27265			43387.38302		70.72000		324.00000 
 43692.65567		 961.16730			42731.48837		229.54400		875.00000 
 43692.65567		 305.27265			43387.38302		70.72000		324.00000 
 43692.65567		 961.16730			42731.48837		229.54400		875.00000 
 43692.65567		 305.27265			43387.38302		70.72000		324.00000 
 43692.65567		 961.16730			42731.48837		229.54400		875.00000 
 43692.65567		 305.27265			43387.38302		70.72000		324.00000 
 43692.65567		 961.16730			42731.48837		229.54400		875.00000 
 43692.65567		 305.27265			43387.38302		70.72000		324.00000 
 43692.65567		 961.16730			42731.48837		229.54400		875.00000 
 43692.65567		 305.27265			43387.38302		70.72000		324.00000 
 43692.65567		 961.16730			42731.48837		229.54400		875.00000 
 43692.65567		 305.27265			43387.38302		70.72000		324.00000 
 43692.65567		 961.16730			42731.48837		229.54400		875.00000 
 43692.65567		 305.27265			43387.38302		70.72000		324.00000 
 43692.65567		 961.16730			42731.48837		229.54400		875.00000 
 43692.65567		 305.27265			43387.38302		70.72000		324.00000 
 43692.65567		 961.16730			42731.48837		229.54400		875.00000 
 43692.65567		 305.27265			43387.38302		70.72000		324.00000 
 43692.65567		 961.16730			42731.48837		229.54400		875.00000 
 43692.65567		 305.27265			43387.38302		70.72000		324.00000 
 43692.65567		 961.16730			42731.48837		229.54400		875.00000 
 43692.65567		 305.27265			43387.38302		70.72000		324.00000 
 43692.65567		 961.16730			42731.48837		229.54400		875.00000 
 43692.65567		 305.27265			43387.38302		70.72000		324.00000 
 43692.65567		 961.16730			42731.48837		229.54400		875.00000 
 43692.65567		 305.27265			43387.38302		70.72000		324.00000 
 43692.65567		 961.16730			42731.48837		229.54400		875.00000 
 43692.65567		 305.27265			43387.38302		70.72000		324.00000 
 43692.65567		 961.16730			42731.48837		229.54400		875.00000 
 43692.65567		 305.27265			43387.38302		70.72000		324.00000 
 43692.65567		 961.16730			42731.48837		229.54400		875.00000 
 43692.65567		 305.27265			43387.38302		70.72000		324.00000 
 43692.65567		 961.16730			42731.48837		229.54400		875.00000 
 43692.65567		 305.27265			43387.38302		70.72000		324.00000 
 43692.65567		 961.16730			42731.48837		229.54400		875.00000 
 43692.65567		 305.27265			43387.38302		70.72000		324.00000 
 43692.65567		 961.16730			42731.48837		229.54400		875.00000 
 43692.65567		 305.27265			43387.38302		70.72000		324.00000 
 43692.65567		 961.16730			42731.48837		229.54400		875.00000 
 43692.65567		 305.27265			43387.38302		70.72000		324.00000 
 43692.65567		 961.16730			42731.48837		229.54400		875.00000 
 43692.65567		 305.27265			43387.38302		70.72000		324.00000 
 43692.65567		 961.16730			42731.48837		229.54400		875.00000 
 43692.65567		 305.27265			43387.38302		70.72000		324.00000 
 43692.65567		 961.16730			42731.48837		229.54400		875.00000 
 43692.65567		 305.27265			43387.38302		70.72000		324.00000 
 43692.65567		 961.16730			42731.48837		229.54400		875.00000 
 43692.65567		 305.27265			43387.38302		70.72000		324.00000 
 43692.65567		 961.16730			42731.48837		229.54400		875.00000 
 43692.65567		 305.27265			43387.38302		70.72000		324.00000 
 43692.65567		 961.16730			42731.48837		229.54400		875.00000 
 43692.65567		 305.27265			43387.38302		70.72000		324.00000 
 43692.65567		 961.16730			42731.48837		229.54400		875.00000 
 43692.65567		 305.27265			43387.38302		70.72000		324.00000 
 43692.65567		 961.16730			42731.48837		229.54400		875.00000 
 43692.65567		 305.27265			43387.38302		70.72000		324.00000 
 43692.65567		 961.16730			42731.48837		229.54400		875.00000 
 43692.65567		 305.27265			43387.38302		70.72000		324.00000 
 43692.65567		 961.16730			42731.48837		229.54400		875.00000 
 43692.65567		 305.27265			43387.38302		70.72000		324.00000 
 43692.65567		 961.16730			42731.48837		229.54400		875.00000 
 43692.65567		 305.27265			43387.38302		70.72000		324.00000 
 43692.65567		 961.16730			42731.48837		229.54400		875.00000 
 43692.65567		 305.27265			43387.38302		70.72000		324.00000 
 43692.65567		 961.16730			42731.48837		229.54400		875.00000 
 43692.65567		 305.27265			43387.38302		70.72000		324.00000 
 43692.65567		 961.16730			42731.48837		229.54400		875.00000 
 43692.65567		 305.27265			43387.38302		70.72000		324.00000 
 43692.65567		 961.16730			42731.48837		229.54400		875.00000 
 43692.65567		 305.27265			43387.38302		70.72000		324.00000 
 43692.65567		 961.16730			42731.48837		229.54400		875.00000 
 43692.65567		 305.27265			43387.38302		70.72000		324.00000 
 43692.65567		 961.16730			42731.48837		229.54400		875.00000 
 43692.65567		 305.27265			43387.38302		70.72000		324.00000 
 43692.65567		 961.16730			42731.48837		229.54400		875.00000 
 43692.65567		 305.27265			43387.38302		70.72000		324.00000 
 43692.65567		 961.16730			42731.48837		229.54400		875.00000 
 43692.65567		 305.27265			43387.38302		70.72000		324.00000 
 43692.65567		 961.16730			42731.48837		228.94600		875.00000 
 43692.65567		 305.27265			43387.38302		70.72000		324.00000 
 43692.65567		 961.16730			42731.48837		228.94600		875.00000 
 43692.65567		 305.27265			43387.38302		70.72000		324.00000 
 43692.65567		 961.16730			42731.48837		228.94600		875.00000 
 43692.65567		 305.27265			43387.38302		70.72000		324.00000 
 43692.65567		 961.16730			42731.48837		228.94600		875.00000 
 43692.65567		 305.27265			43387.38302		70.72000		324.00000 
 43692.65567		 961.16730			42731.48837		228.94600		875.00000 
 43692.65567		 305.27265			43387.38302		70.72000		324.00000 
 43692.65567		 961.16730			42731.48837		228.94600		875.00000 
 43692.65567		 305.27265			43387.38302		70.72000		324.00000 
 43692.65567		 961.16730			42731.48837		228.94600		875.00000 
 43692.65567		 305.27265			43387.38302		70.72000		324.00000 
 43692.65567		 961.16730			42731.48837		228.94600		875.00000 
 43692.65567		 305.27265			43387.38302		70.72000		324.00000 
 43692.65567		 961.16730			42731.48837		228.94600		875.00000 
 43692.65567		 305.27265			43387.38302		70.72000		324.00000 
 43692.65567		 961.16730			42731.48837		228.94600		875.00000 
 43692.65567		 305.27265			43387.38302		70.72000		324.00000 
 43692.65567		 961.16730			42731.48837		228.94600		875.00000 
 43692.65567		 305.27265			43387.38302		70.72000		324.00000 
 43692.65567		 961.16730			42731.48837		228.94600		875.00000 
 43692.65567		 305.27265			43387.38302		70.72000		324.00000 
 43692.65567		 961.16730			42731.48837		228.94600		875.00000 
 43692.65567		 305.27265			43387.38302		70.72000		324.00000 
 43692.65567		 961.16730			42731.48837		228.94600		875.00000 
 43692.65567		 305.27265			43387.38302		70.72000		324.00000 
 43692.65567		 961.16730			42731.48837		228.94600		875.00000 
 43692.65567		 305.27265			43387.38302		70.72000		324.00000 
 43692.65567		 961.16730			42731.48837		228.94600		875.00000 
 43692.65567		 305.27265			43387.38302		70.72000		324.00000 
 43692.65567		 961.16730			42731.48837		228.94600		875.00000 
 43692.65567		 305.27265			43387.38302		70.72000		324.00000 
 43692.65567		 961.16730			42731.48837		228.94600		875.00000 
 43692.65567		 305.27265			43387.38302		70.72000		324.00000 
 43692.65567		 961.16730			42731.48837		228.94600		875.00000 
 43692.65567		 305.27265			43387.38302		70.72000		324.00000 
 43692.65567		 961.16730			42731.48837		228.94600		875.00000 
 43692.65567		 305.27265			43387.38302		70.72000		324.00000 
 43692.65567		 961.16730			42731.48837		228.94600		875.00000 
 43692.65567		 305.27265			43387.38302		70.72000		324.00000 
 43692.65567		 961.16730			42731.48837		228.94600		875.00000 
 43692.65567		 305.27265			43387.38302		70.72000		324.00000 
 43692.65567		 961.16730			42731.48837		228.94600		875.00000 
 43692.65567		 305.27265			43387.38302		70.72000		324.00000 
 43692.65567		 961.16730			42731.48837		228.94600		875.00000 
 43692.65567		 305.27265			43387.38302		70.72000		324.00000 
 43692.65567		 961.16730			42731.48837		228.94600		875.00000 
 43692.65567		 305.27265			43387.38302		70.72000		324.00000 
 43692.65567		 961.16730			42731.48837		228.94600		875.00000 
 43692.65567		 305.27265			43387.38302		70.72000		324.00000 
 43692.65567		 961.16730			42731.48837		228.94600		875.00000 
 43692.65567		 305.27265			43387.38302		70.72000		324.00000 
 43692.65567		 961.16730			42731.48837		228.94600		875.00000 
 43692.65567		 305.27265			43387.38302		70.72000		324.00000 
 43692.65567		 961.16730			42731.48837		228.94600		875.00000 
 43692.65567		 305.27265			43387.38302		70.72000		324.00000 
 43692.65567		 961.16730			42731.48837		228.94600		875.00000 
 43692.65567		 305.27265			43387.38302		70.72000		324.00000 
 43692.65567		 961.16730			42731.48837		228.94600		875.00000 
 43692.65567		 305.27265			43387.38302		70.72000		324.00000 
 43692.65567		 961.16730			42731.48837		228.94600		875.00000 
 43692.65567		 305.27265			43387.38302		70.72000		324.00000 
 43692.65567		 961.16730			42731.48837		228.94600		875.00000 
 43692.65567		 305.27265			43387.38302		70.72000		324.00000 
 43692.65567		 961.16730			42731.48837		228.94600		875.00000 
 43692.65567		 305.27265			43387.38302		70.72000		324.00000 
 43692.65567		 961.16730			42731.48837		228.94600		875.00000 
 43692.65567		 305.27265			43387.38302		70.72000		324.00000 
 43692.65567		 961.16730			42731.48837		228.94600		875.00000 
 43692.65567		 305.27265			43387.38302		70.72000		324.00000 
 43692.65567		 961.16730			42731.48837		228.94600		875.00000 
 43692.65567		 305.27265			43387.38302		70.72000		324.00000 
 43692.65567		 961.16730			42731.48837		228.94600		875.00000 
 43692.65567		 305.27265			43387.38302		70.72000		324.00000 
 43692.65567		 961.16730			42731.48837		228.94600		875.00000 
 43692.65567		 305.27265			43387.38302		70.72000		324.00000 
 43692.65567		 961.16730			42731.48837		228.94600		875.00000 
 43692.65567		 305.27265			43387.38302		70.72000		324.00000 
 43692.65567		 961.16730			42731.48837		228.94600		875.00000 
 43692.65567		 305.27265			43387.38302		70.72000		324.00000 
 43692.65567		 961.16730			42731.48837		228.94600		875.00000 
 43692.65567		 305.27265			43387.38302		70.72000		324.00000 
 43692.65567		 961.16730			42731.48837		228.94600		875.00000 
 43692.65567		 305.27265			43387.38302		70.72000		324.00000 
 43692.65567		 961.16730			42731.48837		228.94600		875.00000 
 43692.65567		 305.27265			43387.38302		70.72000		324.00000 
 43692.65567		 961.16730			42731.48837		228.94600		875.00000 
 43692.65567		 305.27265			43387.38302		70.72000		324.00000 
 43692.65567		 961.16730			42731.48837		228.94600		875.00000 
 43692.65567		 305.27265			43387.38302		70.72000		324.00000 
 43692.65567		 961.16730			42731.48837		228.94600		875.00000 
 43692.65567		 305.27265			43387.38302		70.72000		324.00000 
 43692.65567		 961.16730			42731.48837		228.94600		875.00000 
 43692.65567		 305.27265			43387.38302		70.72000		324.00000 
 43692.65567		 961.16730			42731.48837		228.94600		875.00000 
 43692.65567		 305.27265			43387.38302		70.72000		324.00000 
 43692.65567		 961.16730			42731.48837		228.94600		875.00000 
 43692.65567		 305.27265			43387.38302		70.72000		324.00000 
 43692.65567		 961.16730			42731.48837		228.94600		875.00000 
 43692.65567		 305.27265			43387.38302		70.72000		324.00000 
 43692.65567		 961.16730			42731.48837		228.94600		875.00000 
 43692.65567		 305.27265			43387.38302		70.72000		324.00000 
 43692.65567		 961.16730			42731.48837		228.94600		875.00000 
 43692.65567		 305.27265			43387.38302		70.72000		324.00000 
 43692.65567		 961.16730			42731.48837		228.94600		875.00000 
 43692.65567		 305.27265			43387.38302		70.72000		324.00000 
 43692.65567		 961.16730			42731.48837		228.94600		875.00000 
 43692.65567		 305.27265			43387.38302		70.72000		324.00000 
 43692.65567		 961.16730			42731.48837		228.94600		875.00000 
 43692.65567		 305.27265			43387.38302		70.72000		324.00000 
 43692.65567		 961.16730			42731.48837		228.94600		875.00000 
 43692.65567		 305.27265			43387.38302		70.72000		324.00000 
 43692.65567		 961.16730			42731.48837		228.94600		875.00000 
 43692.65567		 305.27265			43387.38302		70.72000		324.00000 
 43692.65567		 961.16730			42731.48837		228.94600		875.00000 
 43692.65567		 305.27265			43387.38302		70.72000		324.00000 
 43692.65567		 961.16730			42731.48837		228.94600		875.00000 
 43692.65567		 305.27265			43387.38302		70.72000		324.00000 
 43692.65567		 961.16730			42731.48837		228.94600		875.00000 
 43692.65567		 305.27265			43387.38302		70.72000		324.00000 
 43692.65567		 961.16730			42731.48837		228.94600		875.00000 
 43692.65567		 305.27265			43387.38302		70.72000		324.00000 
 43692.65567		 961.16730			42731.48837		228.94600		875.00000 
 43692.65567		 305.27265			43387.38302		70.72000		324.00000 
 43692.65567		 961.16730			42731.48837		228.94600		875.00000 
 43692.65567		 305.27265			43387.38302		70.72000		324.00000 
 43692.65567		 961.16730			42731.48837		229.54400		875.00000 
 43692.65567		 305.27265			43387.38302		70.72000		324.00000 
 43692.65567		 961.16730			42731.48837		229.54400		875.00000 
 43692.65567		 305.27265			43387.38302		70.72000		324.00000 
 43692.65567		 961.16730			42731.48837		229.54400		875.00000 
 43692.65567		 305.27265			43387.38302		70.72000		324.00000 
 43692.65567		 961.16730			42731.48837		229.54400		875.00000 
 43692.65567		 305.27265			43387.38302		70.72000		324.00000 
 43692.65567		 961.16730			42731.48837		229.54400		875.00000 
 43692.65567		 305.27265			43387.38302		70.72000		324.00000 
 43692.65567		 961.16730			42731.48837		229.54400		875.00000 
 43692.65567		 305.27265			43387.38302		70.72000		324.00000 
 43692.65567		 961.16730			42731.48837		229.54400		875.00000 
 43692.65567		 305.27265			43387.38302		70.72000		324.00000 
 43692.65567		 961.16730			42731.48837		229.54400		875.00000 
 43692.65567		 305.27265			43387.38302		70.72000		324.00000 
 43692.65567		 961.16730			42731.48837		229.54400		875.00000 
 43692.65567		 305.27265			43387.38302		70.72000		324.00000 
 43692.65567		 961.16730			42731.48837		229.54400		875.00000 
 43692.65567		 305.27265			43387.38302		70.72000		324.00000 
 43692.65567		 961.16730			42731.48837		229.54400		875.00000 
 43692.65567		 305.27265			43387.38302		70.72000		324.00000 
 43692.65567		 961.16730			42731.48837		229.54400		875.00000 
 43692.65567		 305.27265			43387.38302		70.72000		324.00000 
 43692.65567		 961.16730			42731.48837		229.54400		875.00000 
 43692.65567		 305.27265			43387.38302		70.72000		324.00000 
 43692.65567		 961.16730			42731.48837		229.54400		875.00000 
 43692.65567		 305.27265			43387.38302		70.72000		324.00000 
 43692.65567		 961.16730			42731.48837		229.54400		875.00000 
 43692.65567		 305.27265			43387.38302		70.72000		324.00000 
 43692.65567		 961.16730			42731.48837		229.54400		875.00000 
 43692.65567		 305.27265			43387.38302		70.72000		324.00000 
 43692.65567		 961.16730			42731.48837		229.54400		875.00000 
 43692.65567		 305.27265			43387.38302		70.72000		324.00000 
 43692.65567		 961.16730			42731.48837		229.54400		875.00000 
 43692.65567		 305.27265			43387.38302		70.72000		324.00000 
 43692.65567		 961.16730			42731.48837		229.54400		875.00000 
 43692.65567		 305.27265			43387.38302		70.72000		324.00000 
 43692.65567		 961.16730			42731.48837		229.54400		875.00000 
 43692.65567		 305.27265			43387.38302		70.72000		324.00000 
 43692.65567		 961.16730			42731.48837		229.54400		875.00000 
 43692.65567		 305.27265			43387.38302		70.72000		324.00000 
 43692.65567		 961.16730			42731.48837		229.54400		875.00000 
 43692.65567		 305.27265			43387.38302		70.72000		324.00000 
 43692.65567		 961.16730			42731.48837		229.54400		875.00000 
 43692.65567		 305.27265			43387.38302		70.72000		324.00000 
 43692.65567		 961.16730			42731.48837		229.54400		875.00000 
 43692.65567		 305.27265			43387.38302		70.72000		324.00000 
 43692.65567		 961.16730			42731.48837		229.54400		875.00000 
 43692.65567		 305.27265			43387.38302		70.72000		324.00000 
 43692.65567		 961.16730			42731.48837		229.54400		875.00000 
 43692.65567		 305.27265			43387.38302		70.72000		324.00000 
 43692.65567		 961.16730			42731.48837		229.54400		875.00000 
 43692.65567		 305.27265			43387.38302		70.72000		324.00000 
 43692.65567		 961.16730			42731.48837		229.54400		875.00000 
 43692.65567		 305.27265			43387.38302		70.72000		324.00000 
 43692.65567		 961.16730			42731.48837		229.54400		875.00000 
 43692.65567		 305.27265			43387.38302		70.72000		324.00000 
 43692.65567		 961.16730			42731.48837		229.54400		875.00000 
 43692.65567		 305.27265			43387.38302		70.72000		324.00000 
 43692.65567		 961.16730			42731.48837		229.54400		875.00000 
 43692.65567		 305.27265			43387.38302		70.72000		324.00000 
 43692.65567		 961.16730			42731.48837		229.54400		875.00000 
 43692.65567		 305.27265			43387.38302		70.72000		324.00000 
 43692.65567		 961.16730			42731.48837		229.54400		875.00000 
 43692.65567		 305.27265			43387.38302		70.72000		324.00000 
 43692.65567		 961.16730			42731.48837		229.54400		875.00000 
 43692.65567		 305.27265			43387.38302		70.72000		324.00000 
 43692.65567		 961.16730			42731.48837		229.54400		875.00000 
 43692.65567		 305.27265			43387.38302		70.72000		324.00000 
 43692.65567		 961.16730			42731.48837		229.54400		875.00000 
 43692.65567		 305.27265			43387.38302		70.72000		324.00000 
 43692.65567		 961.16730			42731.48837		229.54400		875.00000 
 43692.65567		 305.27265			43387.38302		70.72000		324.00000 
 43692.65567		 961.16730			42731.48837		229.54400		875.00000 
 43692.65567		 305.27265			43387.38302		70.72000		324.00000 
 43692.65567		 961.16730			42731.48837		229.54400		875.00000 
 43692.65567		 305.27265			43387.38302		70.72000		324.00000 
 43692.65567		 961.16730			42731.48837		229.54400		875.00000 
 43692.65567		 305.27265			43387.38302		70.72000		324.00000 
 43692.65567		 961.16730			42731.48837		229.54400		875.00000 
 43692.65567		 305.27265			43387.38302		70.72000		324.00000 
 43692.65567		 961.16730			42731.48837		229.54400		875.00000 
 43692.65567		 305.27265			43387.38302		70.72000		324.00000 
 43692.65567		 961.16730			42731.48837		229.54400		875.00000 
 43692.65567		 305.27265			43387.38302		70.72000		324.00000 
 43692.65567		 961.16730			42731.48837		229.54400		875.00000 
 43692.65567		 305.27265			43387.38302		70.72000		324.00000 
 43692.65567		 961.16730			42731.48837		229.54400		875.00000 
 43692.65567		 305.27265			43387.38302		70.72000		324.00000 
 43692.65567		 961.16730			42731.48837		229.54400		875.00000 
 43692.65567		 305.27265			43387.38302		70.72000		324.00000 
 43692.65567		 961.16730			42731.48837		229.54400		875.00000 
 43692.65567		 305.27265			43387.38302		70.72000		324.00000 
 43692.65567		 961.16730			42731.48837		229.54400		875.00000 
 43692.65567		 305.27265			43387.38302		70.72000		324.00000 
 43692.65567		 961.16730			42731.48837		229.54400		875.00000 
 43692.65567		 305.27265			43387.38302		70.72000		324.00000 
 43692.65567		 961.16730			42731.48837		229.54400		875.00000 
 43692.65567		 305.27265			43387.38302		70.72000		324.00000 
 43692.65567		 961.16730			42731.48837		229.54400		875.00000 
 43692.65567		 305.27265			43387.38302		70.72000		324.00000 
 43692.65567		 961.16730			42731.48837		229.54400		875.00000 
 43692.65567		 305.27265			43387.38302		70.72000		324.00000 
 43692.65567		 961.16730			42731.48837		229.54400		875.00000 
 43692.65567		 305.27265			43387.38302		70.72000		324.00000 
 43692.65567		 961.16730			42731.48837		229.54400		875.00000 
 43692.65567		 305.27265			43387.38302		70.72000		324.00000 
 43692.65567		 961.16730			42731.48837		229.54400		875.00000 
 43692.65567		 305.27265			43387.38302		70.72000		324.00000 
 43692.65567		 961.16730			42731.48837		229.54400		875.00000 
 43692.65567		 305.27265			43387.38302		70.72000		324.00000 
 43692.65567		 961.16730			42731.48837		229.54400		875.00000 
 43692.65567		 305.27265			43387.38302		70.72000		324.00000 
 43692.65567		 961.16730			42731.48837		229.54400		875.00000 
 43692.65567		 305.27265			43387.38302		70.72000		324.00000 
 43692.65567		 961.16730			42731.48837		229.54400		875.00000 
 43692.65567		 305.27265			43387.38302		70.72000		324.00000 
 43692.65567		 961.16730			42731.48837		229.54400		875.00000 
 43692.65567		 305.27265			43387.38302		70.72000		324.00000 
 43692.65567		 961.16730			42731.48837		229.54400		875.00000 
 43692.65567		 305.27265			43387.38302		70.72000		324.00000 
 43692.65567		 961.16730			42731.48837		229.54400		875.00000 
 43692.65567		 305.27265			43387.38302		70.72000		324.00000 
 43692.65567		 961.16730			42731.48837		229.54400		875.00000 
 43692.65567		 305.27265			43387.38302		70.72000		324.00000 
 43692.65567		 961.16730			42731.48837		229.54400		875.00000 
 43692.65567		 305.27265			43387.38302		70.72000		324.00000 
 43692.65567		 961.16730			42731.48837		229.54400		875.00000 
 43692.65567		 305.27265			43387.38302		70.72000		324.00000 
 43692.65567		 961.16730			42731.48837		229.54400		875.00000 
 43692.65567		 305.27265			43387.38302		70.72000		324.00000 
 43692.65567		 961.16730			42731.48837		229.54400		875.00000 
 43692.65567		 305.27265			43387.38302		70.72000		324.00000 
 43692.65567		 961.16730			42731.48837		229.54400		875.00000 
 43692.65567		 305.27265			43387.38302		70.72000		324.00000 
 43692.65567		 961.16730			42731.48837		229.54400		875.00000 
 43692.65567		 305.27265			43387.38302		70.72000		324.00000 
 43692.65567		 961.16730			42731.48837		229.54400		875.00000 
 43692.65567		 305.27265			43387.38302		70.72000		324.00000 
 43692.65567		 961.16730			42731.48837		229.54400		875.00000 
 43692.65567		 305.27265			43387.38302		70.72000		324.00000 
 43692.65567		 961.16730			42731.48837		229.54400		875.00000 
 43692.65567		 305.27265			43387.38302		70.72000		324.00000 
 43692.65567		 961.16730			42731.48837		229.54400		875.00000 
 43692.65567		 305.27265			43387.38302		70.72000		324.00000 
 43692.65567		 961.16730			42731.48837		229.54400		875.00000 
 43692.65567		 305.27265			43387.38302		70.72000		324.00000 
 43692.65567		 961.16730			42731.48837		229.54400		875.00000 
 43692.65567		 305.27265			43387.38302		70.72000		324.00000 
 43692.65567		 961.16730			42731.48837		229.54400		875.00000 
 43692.65567		 305.27265			43387.38302		70.72000		324.00000 
 43692.65567		 961.16730			42731.48837		229.54400		875.00000 
 43692.65567		 305.27265			43387.38302		70.72000		324.00000 
 43692.65567		 961.16730			42731.48837		229.54400		875.00000 
 43692.65567		 305.27265			43387.38302		70.72000		324.00000 
 43692.65567		 961.16730			42731.48837		229.54400		875.00000 
 43692.65567		 305.27265			43387.38302		70.72000		324.00000 
 43692.65567		 961.16730			42731.48837		229.54400		875.00000 
 43692.65567		 305.27265			43387.38302		70.72000		324.00000 
 43692.65567		 961.16730			42731.48837		229.54400		875.00000 
 43692.65567		 305.27265			43387.38302		70.72000		324.00000 
 43692.65567		 961.16730			42731.48837		229.54400		875.00000 
 43692.65567		 305.27265			43387.38302		70.72000		324.00000 
 43692.65567		 961.16730			42731.48837		229.54400		875.00000 
 43692.65567		 305.27265			43387.38302		70.72000		324.00000 
 43692.65567		 961.16730			42731.48837		229.54400		875.00000 
 43692.65567		 305.27265			43387.38302		70.72000		324.00000 
 43692.65567		 961.16730			42731.48837		229.54400		875.00000 
 43692.65567		 305.27265			43387.38302		70.72000		324.00000 
 43692.65567		 961.16730			42731.48837		229.54400		875.00000 
 43692.65567		 305.27265			43387.38302		70.72000		324.00000 
 43692.65567		 961.16730			42731.48837		229.54400		875.00000 
 43692.65567		 305.27265			43387.38302		70.72000		324.00000 
 43692.65567		 961.16730			42731.48837		229.54400		875.00000 
 43692.65567		 305.27265			43387.38302		70.72000		324.00000 
 43692.65567		 961.16730			42731.48837		229.54400		875.00000 
 43692.65567		 305.27265			43387.38302		70.72000		324.00000 
 43692.65567		 961.16730			42731.48837		229.54400		875.00000 
 43692.65567		 305.27265			43387.38302		70.72000		324.00000 
 43692.65567		 961.16730			42731.48837		229.54400		875.00000 
 43692.65567		 305.27265			43387.38302		70.72000		324.00000 
 43692.65567		 961.16730			42731.48837		229.54400		875.00000 
 43692.65567		 305.27265			43387.38302		70.72000		324.00000 
 43692.65567		 961.16730			42731.48837		229.54400		875.00000 
 43692.65567		 305.27265			43387.38302		70.72000		324.00000 
 43692.65567		 961.16730			42731.48837		229.54400		875.00000 
 43692.65567		 305.27265			43387.38302		70.72000		324.00000 
 43692.65567		 961.16730			42731.48837		229.54400		875.00000 
 43692.65567		 305.27265			43387.38302		70.72000		324.00000 
 43692.65567		 961.16730			42731.48837		229.54400		875.00000 
 43692.65567		 305.27265			43387.38302		70.72000		324.00000 
 43692.65567		 961.16730			42731.48837		229.54400		875.00000 
 43692.65567		 305.27265			43387.38302		70.72000		324.00000 
 43692.65567		 961.16730			42731.48837		229.54400		875.00000 
 43692.65567		 305.27265			43387.38302		70.72000		324.00000 
 43692.65567		 961.16730			42731.48837		229.54400		875.00000 
 43692.65567		 305.27265			43387.38302		70.72000		324.00000 
 43692.65567		 961.16730			42731.48837		229.54400		875.00000 
 43692.65567		 305.27265			43387.38302		70.72000		324.00000 
 43692.65567		 961.16730			42731.48837		229.54400		875.00000 
 43692.65567		 305.27265			43387.38302		70.72000		324.00000 
 43692.65567		 961.16730			42731.48837		229.54400		875.00000 
 43692.65567		 305.27265			43387.38302		70.72000		324.00000 
 43692.65567		 961.16730			42731.48837		229.54400		875.00000 
 43692.65567		 305.27265			43387.38302		70.72000		324.00000 
 43692.65567		 961.16730			42731.48837		229.54400		875.00000 
 43692.65567		 305.27265			43387.38302		70.72000		324.00000 
 43692.65567		 961.16730			42731.48837		229.54400		875.00000 
 43692.65567		 305.27265			43387.38302		70.72000		324.00000 
 43692.65567		 961.16730			42731.48837		229.54400		875.00000 
 43692.65567		 305.27265			43387.38302		70.72000		324.00000 
 43692.65567		 961.16730			42731.48837		229.54400		875.00000 
 43692.65567		 305.27265			43387.38302		70.72000		324.00000 
 43692.65567		 961.16730			42731.48837		229.54400		875.00000 
 43692.65567		 305.27265			43387.38302		70.72000		324.00000 
 43692.65567		 961.16730			42731.48837		229.54400		875.00000 
 43692.65567		 305.27265			43387.38302		70.72000		324.00000 
 43692.65567		 961.16730			42731.48837		229.54400		875.00000 
 43692.65567		 305.27265			43387.38302		70.72000		324.00000 
 43692.65567		 961.16730			42731.48837		229.54400		875.00000 
 43692.65567		 305.27265			43387.38302		70.72000		324.00000 
 43692.65567		 961.16730			42731.48837		229.54400		875.00000 
 43692.65567		 305.27265			43387.38302		70.72000		324.00000 
 43692.65567		 961.16730			42731.48837		229.54400		875.00000 
 43692.65567		 305.27265			43387.38302		70.72000		324.00000 
 43692.65567		 961.16730			42731.48837		229.54400		875.00000 
 43692.65567		 305.27265			43387.38302		70.72000		324.00000 
 43692.65567		 961.16730			42731.48837		229.54400		875.00000 
 43692.65567		 305.27265			43387.38302		70.72000		324.00000 
 43692.65567		 961.16730			42731.48837		229.54400		875.00000 
 43692.65567		 305.27265			43387.38302		70.72000		324.00000 
 43692.65567		 961.16730			42731.48837		229.54400		875.00000 
 43692.65567		 305.27265			43387.38302		70.72000		324.00000 
 43692.65567		 961.16730			42731.48837		229.54400		875.00000 
 43692.65567		 305.27265			43387.38302		70.72000		324.00000 
 43692.65567		 961.16730			42731.48837		229.54400		875.00000 
 43692.65567		 305.27265			43387.38302		70.72000		324.00000 
 43692.65567		 961.16730			42731.48837		229.54400		875.00000 
 43692.65567		 305.27265			43387.38302		70.72000		324.00000 
 43692.65567		 961.16730			42731.48837		229.54400		875.00000 
 43692.65567		 305.27265			43387.38302		70.72000		324.00000 
 43692.65567		 961.16730			42731.48837		229.54400		875.00000 
 43692.65567		 305.27265			43387.38302		70.72000		324.00000 
 43692.65567		 961.16730			42731.48837		229.54400		875.00000 
 43692.65567		 305.27265			43387.38302		70.72000		324.00000 
 43692.65567		 961.16730			42731.48837		229.54400		875.00000 
 43692.65567		 305.27265			43387.38302		70.72000		324.00000 
 43692.65567		 961.16730			42731.48837		229.54400		875.00000 
 43692.65567		 305.27265			43387.38302		70.72000		324.00000 
 43692.65567		 961.16730			42731.48837		229.54400		875.00000 
 43692.65567		 305.27265			43387.38302		70.72000		324.00000 
 43692.65567		 961.16730			42731.48837		229.54400		875.00000 
 43692.65567		 305.27265			43387.38302		70.72000		324.00000 
 43692.65567		 961.16730			42731.48837		229.54400		875.00000 
 43692.65567		 305.27265			43387.38302		70.72000		324.00000 
 43692.65567		 961.16730			42731.48837		229.54400		875.00000 
 43692.65567		 305.27265			43387.38302		70.72000		324.00000 
 43692.65567		 961.16730			42731.48837		229.54400		875.00000 
 43692.65567		 305.27265			43387.38302		70.72000		324.00000 
 43692.65567		 961.16730			42731.48837		229.54400		875.00000 
 43692.65567		 305.27265			43387.38302		70.72000		324.00000 
 43692.65567		 961.16730			42731.48837		229.54400		875.00000 
 43692.65567		 305.27265			43387.38302		70.72000		324.00000 
 43692.65567		 961.16730			42731.48837		229.54400		875.00000 
 43692.65567		 305.27265			43387.38302		70.72000		324.00000 
 43692.65567		 961.16730			42731.48837		229.54400		875.00000 
 43692.65567		 305.27265			43387.38302		70.72000		324.00000 
 43692.65567		 961.16730			42731.48837		229.54400		875.00000 
 43692.65567		 305.27265			43387.38302		70.72000		324.00000 
 43692.65567		 961.16730			42731.48837		229.54400		875.00000 
 43692.65567		 305.27265			43387.38302		70.72000		324.00000 
 43692.65567		 961.16730			42731.48837		229.54400		875.00000 
 43692.65567		 305.27265			43387.38302		70.72000		324.00000 
 43692.65567		 961.16730			42731.48837		229.54400		875.00000 
 43692.65567		 305.27265			43387.38302		70.72000		324.00000 
 43692.65567		 961.16730			42731.48837		229.54400		875.00000 
 43692.65567		 305.27265			43387.38302		70.72000		324.00000 
 43692.65567		 961.16730			42731.48837		229.54400		875.00000 
 43692.65567		 305.27265			43387.38302		70.72000		324.00000 
 43692.65567		 961.16730			42731.48837		229.54400		875.00000 
 43692.65567		 305.27265			43387.38302		70.72000		324.00000 
 43692.65567		 961.16730			42731.48837		229.54400		875.00000 
 43692.65567		 305.27265			43387.38302		70.72000		324.00000 
 43692.65567		 961.16730			42731.48837		229.54400		875.00000 
 43692.65567		 305.27265			43387.38302		70.72000		324.00000 
 43692.65567		 961.16730			42731.48837		229.54400		875.00000 
 43692.65567		 305.27265			43387.38302		70.72000		324.00000 
 43692.65567		 961.16730			42731.48837		229.54400		875.00000 
 43692.65567		 305.27265			43387.38302		70.72000		324.00000 
 43692.65567		 961.16730			42731.48837		229.54400		875.00000 
 43692.65567		 305.27265			43387.38302		70.72000		324.00000 
 43692.65567		 961.16730			42731.48837		229.54400		875.00000 
 43692.65567		 305.27265			43387.38302		70.72000		324.00000 
 43692.65567		 961.16730			42731.48837		229.54400		875.00000 
 43692.65567		 305.27265			43387.38302		70.72000		324.00000 
 43692.65567		 961.16730			42731.48837		229.54400		875.00000 
 43692.65567		 305.27265			43387.38302		70.72000		324.00000 
 43692.65567		 961.16730			42731.48837		229.54400		875.00000 
 43692.65567		 305.27265			43387.38302		70.72000		324.00000 
 43692.65567		 961.16730			42731.48837		229.54400		875.00000 
 43692.65567		 305.27265			43387.38302		70.72000		324.00000 
 43692.65567		 961.16730			42731.48837		229.54400		875.00000 
 43692.65567		 305.27265			43387.38302		70.72000		324.00000 
 43692.65567		 961.16730			42731.48837		229.54400		875.00000 
 43692.65567		 305.27265			43387.38302		70.72000		324.00000 
 43692.65567		 961.16730			42731.48837		229.54400		875.00000 
 43692.65567		 305.27265			43387.38302		70.72000		324.00000 
 43692.65567		 961.16730			42731.48837		229.54400		875.00000 
 43692.65567		 305.27265			43387.38302		70.72000		324.00000 
 43692.65567		 961.16730			42731.48837		229.54400		875.00000 
 43692.65567		 305.27265			43387.38302		70.72000		324.00000 
 43692.65567		 961.16730			42731.48837		229.54400		875.00000 
 43692.65567		 305.27265			43387.38302		70.72000		324.00000 
 43692.65567		 961.16730			42731.48837		229.54400		875.00000 
 43692.65567		 305.27265			43387.38302		70.72000		324.00000 
 43692.65567		 961.16730			42731.48837		229.54400		875.00000 
 43692.65567		 305.27265			43387.38302		70.72000		324.00000 
 43692.65567		 961.16730			42731.48837		229.54400		875.00000 
 43692.65567		 305.27265			43387.38302		70.72000		324.00000 
 43692.65567		 961.16730			42731.48837		229.54400		875.00000 
 43692.65567		 305.27265			43387.38302		70.72000		324.00000 
 43692.65567		 961.16730			42731.48837		229.54400		875.00000 
 43692.65567		 305.27265			43387.38302		70.72000		324.00000 
 43692.65567		 961.16730			42731.48837		229.54400		875.00000 
 43692.65567		 305.27265			43387.38302		70.72000		324.00000 
 43692.65567		 961.16730			42731.48837		229.54400		875.00000 
 43692.65567		 305.27265			43387.38302		70.72000		324.00000 
 43692.65567		 961.16730			42731.48837		229.54400		875.00000 
 43692.65567		 305.27265			43387.38302		70.72000		324.00000 
 43692.65567		 961.16730			42731.48837		229.54400		875.00000 
 43692.65567		 305.27265			43387.38302		70.72000		324.00000 
 43692.65567		 961.16730			42731.48837		229.54400		875.00000 
 43692.65567		 305.27265			43387.38302		70.72000		324.00000 
 43692.65567		 961.16730			42731.48837		229.54400		875.00000 
 43692.65567		 305.27265			43387.38302		70.72000		324.00000 
 43692.65567		 961.16730			42731.48837		229.54400		875.00000 
 43692.65567		 305.27265			43387.38302		70.72000		324.00000 
 43692.65567		 961.16730			42731.48837		229.54400		875.00000 
 43692.65567		 305.27265			43387.38302		70.72000		324.00000 
 43692.65567		 961.16730			42731.48837		229.54400		875.00000 
 43692.65567		 305.27265			43387.38302		70.72000		324.00000 
 43692.65567		 961.16730			42731.48837		229.54400		875.00000 
 43692.65567		 305.27265			43387.38302		70.72000		324.00000 
 43692.65567		 961.16730			42731.48837		229.54400		875.00000 
 43692.65567		 305.27265			43387.38302		70.72000		324.00000 
 43692.65567		 961.16730			42731.48837		229.54400		875.00000 
 43692.65567		 305.27265			43387.38302		70.72000		324.00000 
 43692.65567		 961.16730			42731.48837		229.54400		875.00000 
 43692.65567		 305.27265			43387.38302		70.72000		324.00000 
 43692.65567		 961.16730			42731.48837		229.54400		875.00000 
 43692.65567		 305.27265			43387.38302		70.72000		324.00000 
 43692.65567		 961.16730			42731.48837		229.54400		875.00000 
 43692.65567		 305.27265			43387.38302		70.72000		324.00000 
 43692.65567		 961.16730			42731.48837		229.54400		875.00000 
 43692.65567		 305.27265			43387.38302		70.72000		324.00000 
 43692.65567		 961.16730			42731.48837		229.54400		875.00000 
 43692.65567		 305.27265			43387.38302		70.72000		324.00000 
 43692.65567		 961.16730			42731.48837		229.54400		875.00000 
 43692.65567		 305.27265			43387.38302		70.72000		324.00000 
 43692.65567		 961.16730			42731.48837		229.54400		875.00000 
 43692.65567		 305.27265			43387.38302		70.72000		324.00000 
 43692.65567		 961.16730			42731.48837		229.54400		875.00000 
 43692.65567		 305.27265			43387.38302		70.72000		324.00000 
 43692.65567		 961.16730			42731.48837		229.54400		875.00000 
 43692.65567		 305.27265			43387.38302		70.72000		324.00000 
 43692.65567		 961.16730			42731.48837		229.54400		875.00000 
 43692.65567		 305.27265			43387.38302		70.72000		324.00000 
 43692.65567		 961.16730			42731.48837		229.54400		875.00000 
 43692.65567		 305.27265			43387.38302		70.72000		324.00000 
 43692.65567		 961.16730			42731.48837		229.54400		875.00000 
 43692.65567		 305.27265			43387.38302		70.72000		324.00000 
 43692.65567		 961.16730			42731.48837		229.54400		875.00000 
 43692.65567		 305.27265			43387.38302		70.72000		324.00000 
 43692.65567		 961.16730			42731.48837		229.54400		875.00000 
 43692.65567		 305.27265			43387.38302		70.72000		324.00000 
 43692.65567		 961.16730			42731.48837		229.54400		875.00000 
 43692.65567		 305.27265			43387.38302		70.72000		324.00000 
 43692.65567		 961.16730			42731.48837		229.54400		875.00000 
 43692.65567		 305.27265			43387.38302		70.72000		324.00000 
 43692.65567		 961.16730			42731.48837		229.54400		875.00000 
 43692.65567		 305.27265			43387.38302		70.72000		324.00000 
 43692.65567		 961.16730			42731.48837		229.54400		875.00000 
 43692.65567		 305.27265			43387.38302		70.72000		324.00000 
 43692.65567		 961.16730			42731.48837		229.54400		875.00000 
 43692.65567		 305.27265			43387.38302		70.72000		324.00000 
 43692.65567		 961.16730			42731.48837		229.54400		875.00000 
 43692.65567		 305.27265			43387.38302		70.72000		324.00000 
 43692.65567		 961.16730			42731.48837		229.54400		875.00000 
 43692.65567		 305.27265			43387.38302		70.72000		324.00000 
 43692.65567		 961.16730			42731.48837		229.54400		875.00000 
 43692.65567		 305.27265			43387.38302		70.72000		324.00000 
 43692.65567		 961.16730			42731.48837		229.54400		875.00000 
 43692.65567		 305.27265			43387.38302		70.72000		324.00000 
 43692.65567		 961.16730			42731.48837		229.54400		875.00000 
 43692.65567		 305.27265			43387.38302		70.72000		324.00000 
 43692.65567		 961.16730			42731.48837		229.54400		875.00000 
 43692.65567		 305.27265			43387.38302		70.72000		324.00000 
 43692.65567		 961.16730			42731.48837		229.54400		875.00000 
 43692.65567		 305.27265			43387.38302		70.72000		324.00000 
 43692.65567		 961.16730			42731.48837		229.54400		875.00000 
 43692.65567		 305.27265			43387.38302		70.72000		324.00000 
 43692.65567		 961.16730			42731.48837		229.54400		875.00000 
 43692.65567		 305.27265			43387.38302		70.72000		324.00000 
 43692.65567		 961.16730			42731.48837		229.54400		875.00000 
 43692.65567		 305.27265			43387.38302		70.72000		324.00000 
 43692.65567		 961.16730			42731.48837		229.54400		875.00000 
 43692.65567		 305.27265			43387.38302		70.72000		324.00000 
 43692.65567		 961.16730			42731.48837		229.54400		875.00000 
 43692.65567		 305.27265			43387.38302		70.72000		324.00000 
 43692.65567		 961.16730			42731.48837		229.54400		875.00000 
 43692.65567		 305.27265			43387.38302		70.72000		324.00000 
 43692.65567		 961.16730			42731.48837		229.54400		875.00000 
 43692.65567		 305.27265			43387.38302		70.72000		324.00000 
 43692.65567		 961.16730			42731.48837		229.54400		875.00000 
 43692.65567		 305.27265			43387.38302		70.72000		324.00000 
 43692.65567		 961.16730			42731.48837		229.54400		875.00000 
 43692.65567		 305.27265			43387.38302		70.72000		324.00000 
 43692.65567		 961.16730			42731.48837		229.54400		875.00000 
 43692.65567		 305.27265			43387.38302		70.72000		324.00000 
 43692.65567		 961.16730			42731.48837		229.54400		875.00000 
 43692.65567		 305.27265			43387.38302		70.72000		324.00000 
 43692.65567		 961.16730			42731.48837		229.54400		875.00000 
 43692.65567		 305.27265			43387.38302		70.72000		324.00000 
 43692.65567		 961.16730			42731.48837		229.54400		875.00000 
 43692.65567		 305.27265			43387.38302		70.72000		324.00000 
 43692.65567		 961.16730			42731.48837		229.54400		875.00000 
 43692.65567		 305.27265			43387.38302		70.72000		324.00000 
 43692.65567		 961.16730			42731.48837		229.54400		875.00000 
 43692.65567		 305.27265			43387.38302		70.72000		324.00000 
 43692.65567		 961.16730			42731.48837		229.54400		875.00000 
 43692.65567		 305.27265			43387.38302		70.72000		324.00000 
 43692.65567		 961.16730			42731.48837		229.54400		875.00000 
 43692.65567		 305.27265			43387.38302		70.72000		324.00000 
 43692.65567		 961.16730			42731.48837		229.54400		875.00000 
 43692.65567		 305.27265			43387.38302		70.72000		324.00000 
 43692.65567		 961.16730			42731.48837		229.54400		875.00000 
 43692.65567		 305.27265			43387.38302		70.72000		324.00000 
 43692.65567		 961.16730			42731.48837		229.54400		875.00000 
 43692.65567		 305.27265			43387.38302		70.72000		324.00000 
 43692.65567		 961.16730			42731.48837		229.54400		875.00000 
 43692.65567		 305.27265			43387.38302		70.72000		324.00000 
 43692.65567		 961.16730			42731.48837		229.54400		875.00000 
 43692.65567		 305.27265			43387.38302		70.72000		324.00000 
 43692.65567		 961.16730			42731.48837		229.54400		875.00000 
 43692.65567		 305.27265			43387.38302		70.72000		324.00000 
 43692.65567		 961.16730			42731.48837		229.54400		875.00000 
 43692.65567		 305.27265			43387.38302		70.72000		324.00000 
 43692.65567		 961.16730			42731.48837		229.54400		875.00000 
 43692.65567		 305.27265			43387.38302		70.72000		324.00000 
 43692.65567		 961.16730			42731.48837		229.54400		875.00000 
 43692.65567		 305.27265			43387.38302		70.72000		324.00000 
 43692.65567		 961.16730			42731.48837		229.54400		875.00000 
 43692.65567		 305.27265			43387.38302		70.72000		324.00000 
 43692.65567		 961.16730			42731.48837		229.54400		875.00000 
 43692.65567		 305.27265			43387.38302		70.72000		324.00000 
 43692.65567		 961.16730			42731.48837		229.54400		875.00000 
 43692.65567		 305.27265			43387.38302		70.72000		324.00000 
 43692.65567		 961.16730			42731.48837		229.54400		875.00000 
 43692.65567		 305.27265			43387.38302		70.72000		324.00000 
 43692.65567		 961.16730			42731.48837		229.54400		875.00000 
 43692.65567		 305.27265			43387.38302		70.72000		324.00000 
 43692.65567		 961.16730			42731.48837		229.54400		875.00000 
 43692.65567		 305.27265			43387.38302		70.72000		324.00000 
 43692.65567		 961.16730			42731.48837		229.54400		875.00000 
 43692.65567		 305.27265			43387.38302		70.72000		324.00000 
 43692.65567		 961.16730			42731.48837		229.54400		875.00000 
 43692.65567		 305.27265			43387.38302		70.72000		324.00000 
 43692.65567		 961.16730			42731.48837		229.54400		875.00000 
 43692.65567		 305.27265			43387.38302		70.72000		324.00000 
 43692.65567		 961.16730			42731.48837		229.54400		875.00000 
 43692.65567		 305.27265			43387.38302		70.72000		324.00000 
 43692.65567		 961.16730			42731.48837		229.54400		875.00000 
 43692.65567		 305.27265			43387.38302		70.72000		324.00000 
 43692.65567		 961.16730			42731.48837		229.54400		875.00000 
 43692.65567		 305.27265			43387.38302		70.72000		324.00000 
 43692.65567		 961.16730			42731.48837		229.54400		875.00000 
 43692.65567		 305.27265			43387.38302		70.72000		324.00000 
 43692.65567		 961.16730			42731.48837		229.54400		875.00000 
 43692.65567		 305.27265			43387.38302		70.72000		324.00000 
 43692.65567		 961.16730			42731.48837		229.54400		875.00000 
 43692.65567		 305.27265			43387.38302		70.72000		324.00000 
 43692.65567		 961.16730			42731.48837		229.54400		875.00000 
 43692.65567		 305.27265			43387.38302		70.72000		324.00000 
 43692.65567		 961.16730			42731.48837		229.54400		875.00000 
 43692.65567		 305.27265			43387.38302		70.72000		324.00000 
 43692.65567		 961.16730			42731.48837		229.54400		875.00000 
 43692.65567		 305.27265			43387.38302		70.72000		324.00000 
 43692.65567		 961.16730			42731.48837		229.54400		875.00000 
 43692.65567		 305.27265			43387.38302		70.72000		324.00000 
 43692.65567		 961.16730			42731.48837		229.54400		875.00000 
 43692.65567		 305.27265			43387.38302		70.72000		324.00000 
 43692.65567		 961.16730			42731.48837		229.54400		875.00000 
 43692.65567		 305.27265			43387.38302		70.72000		324.00000 
 43692.65567		 961.16730			42731.48837		229.54400		875.00000 
 43692.65567		 305.27265			43387.38302		70.72000		324.00000 
 43692.65567		 961.16730			42731.48837		229.54400		875.00000 
 43692.65567		 305.27265			43387.38302		70.72000		324.00000 
 43692.65567		 961.16730			42731.48837		229.54400		875.00000 
 43692.65567		 305.27265			43387.38302		70.72000		324.00000 
 43692.65567		 961.16730			42731.48837		229.54400		875.00000 
 43692.65567		 305.27265			43387.38302		70.72000		324.00000 
 43692.65567		 961.16730			42731.48837		229.54400		875.00000 
 43692.65567		 305.27265			43387.38302		70.72000		324.00000 
 43692.65567		 961.16730			42731.48837		229.54400		875.00000 
 43692.65567		 305.27265			43387.38302		70.72000		324.00000 
 43692.65567		 961.16730			42731.48837		229.54400		875.00000 
 43692.65567		 305.27265			43387.38302		70.72000		324.00000 
 43692.65567		 961.16730			42731.48837		229.54400		875.00000 
 43692.65567		 305.27265			43387.38302		70.72000		324.00000 
 43692.65567		 961.16730			42731.48837		229.54400		875.00000 
 43692.65567		 305.27265			43387.38302		70.72000		324.00000 
 43692.65567		 961.16730			42731.48837		229.54400		875.00000 
 43692.65567		 305.27265			43387.38302		70.72000		324.00000 
 43692.65567		 961.16730			42731.48837		229.54400		875.00000 
 43692.65567		 305.27265			43387.38302		70.72000		324.00000 
 43692.65567		 961.16730			42731.48837		229.54400		875.00000 
 43692.65567		 305.27265			43387.38302		70.72000		324.00000 
 43692.65567		 961.16730			42731.48837		229.54400		875.00000 
 43692.65567		 305.27265			43387.38302		70.72000		324.00000 
 43692.65567		 961.16730			42731.48837		229.54400		875.00000 
 43692.65567		 305.27265			43387.38302		70.72000		324.00000 
 43692.65567		 961.16730			42731.48837		229.54400		875.00000 
 43692.65567		 305.27265			43387.38302		70.72000		324.00000 
 43692.65567		 961.16730			42731.48837		229.54400		875.00000 
 43692.65567		 305.27265			43387.38302		70.72000		324.00000 
 43692.65567		 961.16730			42731.48837		229.54400		875.00000 
 43692.65567		 305.27265			43387.38302		70.72000		324.00000 
 43692.65567		 961.16730			42731.48837		229.54400		875.00000 
 43692.65567		 305.27265			43387.38302		70.72000		324.00000 
 43692.65567		 961.16730			42731.48837		229.54400		875.00000 
 43692.65567		 305.27265			43387.38302		70.72000		324.00000 
 43692.65567		 961.16730			42731.48837		229.54400		875.00000 
 43692.65567		 305.27265			43387.38302		70.72000		324.00000 
 43692.65567		 961.16730			42731.48837		229.54400		875.00000 
 43692.65567		 305.27265			43387.38302		70.72000		324.00000 
 43692.65567		 961.16730			42731.48837		229.54400		875.00000 
 43692.65567		 305.27265			43387.38302		70.72000		324.00000 
 43692.65567		 961.16730			42731.48837		229.54400		875.00000 
 43692.65567		 305.27265			43387.38302		70.72000		324.00000 
 43692.65567		 961.16730			42731.48837		229.54400		875.00000 
 43692.65567		 305.27265			43387.38302		70.72000		324.00000 
 43692.65567		 961.16730			42731.48837		229.54400		875.00000 
 43692.65567		 305.27265			43387.38302		70.72000		324.00000 
 43692.65567		 961.16730			42731.48837		229.54400		875.00000 
 43692.65567		 305.27265			43387.38302		70.72000		324.00000 
 43692.65567		 961.16730			42731.48837		229.54400		875.00000 
 43692.65567		 305.27265			43387.38302		70.72000		324.00000 
 43692.65567		 961.16730			42731.48837		229.54400		875.00000 
 43692.65567		 305.27265			43387.38302		70.72000		324.00000 
 43692.65567		 961.16730			42731.48837		229.54400		875.00000 
 43692.65567		 305.27265			43387.38302		70.72000		324.00000 
 43692.65567		 961.16730			42731.48837		229.54400		875.00000 
 43692.65567		 305.27265			43387.38302		70.72000		324.00000 
 43692.65567		 961.16730			42731.48837		229.54400		875.00000 
 43692.65567		 305.27265			43387.38302		70.72000		324.00000 
 43692.65567		 961.16730			42731.48837		229.54400		875.00000 
 43692.65567		 305.27265			43387.38302		70.72000		324.00000 
 43692.65567		 961.16730			42731.48837		229.54400		875.00000 
 43692.65567		 305.27265			43387.38302		70.72000		324.00000 
 43692.65567		 961.16730			42731.48837		229.54400		875.00000 
 43692.65567		 305.27265			43387.38302		70.72000		324.00000 
 43692.65567		 961.16730			42731.48837		229.54400		875.00000 
 43692.65567		 305.27265			43387.38302		70.72000		324.00000 
 43692.65567		 961.16730			42731.48837		229.54400		875.00000 
 43692.65567		 305.27265			43387.38302		70.72000		324.00000 
 43692.65567		 961.16730			42731.48837		229.54400		875.00000 
 43692.65567		 305.27265			43387.38302		70.72000		324.00000 
 43692.65567		 961.16730			42731.48837		229.54400		875.00000 
 43692.65567		 305.27265			43387.38302		70.72000		324.00000 
 43692.65567		 961.16730			42731.48837		229.54400		875.00000 
 43692.65567		 305.27265			43387.38302		70.72000		324.00000 
 43692.65567		 961.16730			42731.48837		229.54400		875.00000 
 43692.65567		 305.27265			43387.38302		70.72000		324.00000 
 43692.65567		 961.16730			42731.48837		229.54400		875.00000 
 43692.65567		 305.27265			43387.38302		70.72000		324.00000 
 43692.65567		 961.16730			42731.48837		229.54400		875.00000 
 43692.65567		 305.27265			43387.38302		70.72000		324.00000 
 43692.65567		 961.16730			42731.48837		229.54400		875.00000 
 43692.65567		 305.27265			43387.38302		70.72000		324.00000 
 43692.65567		 961.16730			42731.48837		229.54400		875.00000 
 43692.65567		 305.27265			43387.38302		70.72000		324.00000 
 43692.65567		 961.16730			42731.48837		229.54400		875.00000 
 43692.65567		 305.27265			43387.38302		70.72000		324.00000 
 43692.65567		 961.16730			42731.48837		229.54400		875.00000 
 43692.65567		 305.27265			43387.38302		70.72000		324.00000 
 43692.65567		 961.16730			42731.48837		229.54400		875.00000 
 43692.65567		 305.27265			43387.38302		70.72000		324.00000 
 43692.65567		 961.16730			42731.48837		229.54400		875.00000 
 43692.65567		 305.27265			43387.38302		70.72000		324.00000 
 43692.65567		 961.16730			42731.48837		229.54400		875.00000 
 43692.65567		 305.27265			43387.38302		70.72000		324.00000 
 43692.65567		 961.16730			42731.48837		229.54400		875.00000 
 43692.65567		 305.27265			43387.38302		70.72000		324.00000 
 43692.65567		 961.16730			42731.48837		229.54400		875.00000 
 43692.65567		 305.27265			43387.38302		70.72000		324.00000 
 43692.65567		 961.16730			42731.48837		229.54400		875.00000 
 43692.65567		 305.27265			43387.38302		70.72000		324.00000 
 43692.65567		 961.16730			42731.48837		229.54400		875.00000 
 43692.65567		 305.27265			43387.38302		70.72000		324.00000 
 43692.65567		 961.16730			42731.48837		229.54400		875.00000 
 43692.65567		 305.27265			43387.38302		70.72000		324.00000 
 43692.65567		 961.16730			42731.48837		229.54400		875.00000 
 43692.65567		 305.27265			43387.38302		70.72000		324.00000 
 43692.65567		 961.16730			42731.48837		229.54400		875.00000 
 43692.65567		 305.27265			43387.38302		70.72000		324.00000 
 43692.65567		 961.16730			42731.48837		229.54400		875.00000 
 43692.65567		 305.27265			43387.38302		70.72000		324.00000 
 43692.65567		 961.16730			42731.48837		229.54400		875.00000 
 43692.65567		 305.27265			43387.38302		70.72000		324.00000 
 43692.65567		 961.16730			42731.48837		229.54400		875.00000 
 43692.65567		 305.27265			43387.38302		70.72000		324.00000 
 43692.65567		 961.16730			42731.48837		229.54400		875.00000 
 43692.65567		 305.27265			43387.38302		70.72000		324.00000 
 43692.65567		 961.16730			42731.48837		229.54400		875.00000 
 43692.65567		 305.27265			43387.38302		70.72000		324.00000 
 43692.65567		 961.16730			42731.48837		229.54400		875.00000 
 43692.65567		 305.27265			43387.38302		70.72000		324.00000 
 43692.65567		 961.16730			42731.48837		229.54400		875.00000 
 43692.65567		 305.27265			43387.38302		70.72000		324.00000 
 43692.65567		 961.16730			42731.48837		229.54400		875.00000 
 43692.65567		 305.27265			43387.38302		70.72000		324.00000 
 43692.65567		 961.16730			42731.48837		229.54400		875.00000 
 43692.65567		 305.27265			43387.38302		70.72000		324.00000 
 43692.65567		 961.16730			42731.48837		229.54400		875.00000 
 43692.65567		 305.27265			43387.38302		70.72000		324.00000 
 43692.65567		 961.16730			42731.48837		229.54400		875.00000 
 43692.65567		 305.27265			43387.38302		70.72000		324.00000 
 43692.65567		 961.16730			42731.48837		229.54400		875.00000 
 43692.65567		 305.27265			43387.38302		70.72000		324.00000 
 43692.65567		 961.16730			42731.48837		229.54400		875.00000 
 43692.65567		 305.27265			43387.38302		70.72000		324.00000 
 43692.65567		 961.16730			42731.48837		229.54400		875.00000 
 43692.65567		 305.27265			43387.38302		70.72000		324.00000 
 43692.65567		 961.16730			42731.48837		229.54400		875.00000 
 43692.65567		 305.27265			43387.38302		70.72000		324.00000 
 43692.65567		 961.16730			42731.48837		229.54400		875.00000 
 43692.65567		 305.27265			43387.38302		70.72000		324.00000 
 43692.65567		 961.16730			42731.48837		229.54400		875.00000 
 43692.65567		 305.27265			43387.38302		70.72000		324.00000 
 43692.65567		 961.16730			42731.48837		229.54400		875.00000 
 43692.65567		 305.27265			43387.38302		70.72000		324.00000 
 43692.65567		 961.16730			42731.48837		229.54400		875.00000 
 43692.65567		 305.27265			43387.38302		70.72000		324.00000 
 43692.65567		 961.16730			42731.48837		229.54400		875.00000 
 43692.65567		 305.27265			43387.38302		70.72000		324.00000 
 43692.65567		 961.16730			42731.48837		229.54400		875.00000 
 43692.65567		 305.27265			43387.38302		70.72000		324.00000 
 43692.65567		 961.16730			42731.48837		229.54400		875.00000 
 43692.65567		 305.27265			43387.38302		70.72000		324.00000 
 43692.65567		 961.16730			42731.48837		229.54400		875.00000 
 43692.65567		 305.27265			43387.38302		70.72000		324.00000 
 43692.65567		 961.16730			42731.48837		229.54400		875.00000 
 43692.65567		 305.27265			43387.38302		70.72000		324.00000 
 43692.65567		 961.16730			42731.48837		229.54400		875.00000 
 43692.65567		 305.27265			43387.38302		70.72000		324.00000 
 43692.65567		 961.16730			42731.48837		229.54400		875.00000 
 43692.65567		 305.27265			43387.38302		70.72000		324.00000 
 43692.65567		 961.16730			42731.48837		229.54400		875.00000 
 43692.65567		 305.27265			43387.38302		70.72000		324.00000 
 43692.65567		 961.16730			42731.48837		229.54400		875.00000 
 43692.65567		 305.27265			43387.38302		70.72000		324.00000 
 43692.65567		 961.16730			42731.48837		229.54400		875.00000 
 43692.65567		 305.27265			43387.38302		70.72000		324.00000 
 43692.65567		 961.16730			42731.48837		229.54400		875.00000 
 43692.65567		 305.27265			43387.38302		70.72000		324.00000 
 43692.65567		 961.16730			42731.48837		229.54400		875.00000 
 43692.65567		 305.27265			43387.38302		70.72000		324.00000 
 43692.65567		 961.16730			42731.48837		229.54400		875.00000 
 43692.65567		 305.27265			43387.38302		70.72000		324.00000 
 43692.65567		 961.16730			42731.48837		229.54400		875.00000 
 43692.65567		 305.27265			43387.38302		70.72000		324.00000 
 43692.65567		 961.16730			42731.48837		229.54400		875.00000 
 43692.65567		 305.27265			43387.38302		70.72000		324.00000 
 43692.65567		 961.16730			42731.48837		229.54400		875.00000 
 43692.65567		 305.27265			43387.38302		70.72000		324.00000 
 43692.65567		 961.16730			42731.48837		229.54400		875.00000 
 43692.65567		 305.27265			43387.38302		70.72000		324.00000 
 43692.65567		 961.16730			42731.48837		229.54400		875.00000 
 43692.65567		 305.27265			43387.38302		70.72000		324.00000 
 43692.65567		 961.16730			42731.48837		229.54400		875.00000 
 43692.65567		 305.27265			43387.38302		70.72000		324.00000 
 43692.65567		 961.16730			42731.48837		229.54400		875.00000 
 43692.65567		 305.27265			43387.38302		70.72000		324.00000 
 43692.65567		 961.16730			42731.48837		229.54400		875.00000 
 43692.65567		 305.27265			43387.38302		70.72000		324.00000 
 43692.65567		 961.16730			42731.48837		229.54400		875.00000 
 43692.65567		 305.27265			43387.38302		70.72000		324.00000 
 43692.65567		 961.16730			42731.48837		229.54400		875.00000 
 43692.65567		 305.27265			43387.38302		70.72000		324.00000 
 43692.65567		 961.16730			42731.48837		229.54400		875.00000 
 43692.65567		 305.27265			43387.38302		70.72000		324.00000 
 43692.65567		 961.16730			42731.48837		229.54400		875.00000 
 43692.65567		 305.27265			43387.38302		70.72000		324.00000 
 43692.65567		 961.16730			42731.48837		229.54400		875.00000 
 43692.65567		 305.27265			43387.38302		70.72000		324.00000 
 43692.65567		 961.16730			42731.48837		229.54400		875.00000 
 43692.65567		 305.27265			43387.38302		70.72000		324.00000 
 43692.65567		 961.16730			42731.48837		229.54400		875.00000 
 43692.65567		 305.27265			43387.38302		70.72000		324.00000 
 43692.65567		 961.16730			42731.48837		229.54400		875.00000 
 43692.65567		 305.27265			43387.38302		70.72000		324.00000 
 43692.65567		 961.16730			42731.48837		229.54400		875.00000 
 43692.65567		 305.27265			43387.38302		70.72000		324.00000 
 43692.65567		 961.16730			42731.48837		229.54400		875.00000 
 43692.65567		 305.27265			43387.38302		70.72000		324.00000 
 43692.65567		 961.16730			42731.48837		229.54400		875.00000 
 43692.65567		 305.27265			43387.38302		70.72000		324.00000 
 43692.65567		 961.16730			42731.48837		229.54400		875.00000 
 43692.65567		 305.27265			43387.38302		70.72000		324.00000 
 43692.65567		 961.16730			42731.48837		229.54400		875.00000 
 43692.65567		 305.27265			43387.38302		70.72000		324.00000 
 43692.65567		 961.16730			42731.48837		229.54400		875.00000 
 43692.65567		 305.27265			43387.38302		70.72000		324.00000 
 43692.65567		 961.16730			42731.48837		229.54400		875.00000 
 43692.65567		 305.27265			43387.38302		70.72000		324.00000 
 43692.65567		 961.16730			42731.48837		229.54400		875.00000 
 43692.65567		 305.27265			43387.38302		70.72000		324.00000 
 43692.65567		 961.16730			42731.48837		229.54400		875.00000 
 43692.65567		 305.27265			43387.38302		70.72000		324.00000 
 43692.65567		 961.16730			42731.48837		229.54400		875.00000 
 43692.65567		 305.27265			43387.38302		70.72000		324.00000 
 43692.65567		 961.16730			42731.48837		229.54400		875.00000 
 43692.65567		 305.27265			43387.38302		70.72000		324.00000 
 43692.65567		 961.16730			42731.48837		229.54400		875.00000 
 43692.65567		 305.27265			43387.38302		70.72000		324.00000 
 43692.65567		 961.16730			42731.48837		229.54400		875.00000 
 43692.65567		 305.27265			43387.38302		70.72000		324.00000 
 43692.65567		 961.16730			42731.48837		229.54400		875.00000 
 43692.65567		 305.27265			43387.38302		70.72000		324.00000 
 43692.65567		 961.16730			42731.48837		229.54400		875.00000 
 43692.65567		 305.27265			43387.38302		70.72000		324.00000 
 43692.65567		 961.16730			42731.48837		229.54400		875.00000 
 43692.65567		 305.27265			43387.38302		70.72000		324.00000 
 43692.65567		 961.16730			42731.48837		229.54400		875.00000 
 43692.65567		 305.27265			43387.38302		70.72000		324.00000 
 43692.65567		 961.16730			42731.48837		229.54400		875.00000 
 43692.65567		 305.27265			43387.38302		70.72000		324.00000 
 43692.65567		 961.16730			42731.48837		229.54400		875.00000 
 43692.65567		 305.27265			43387.38302		70.72000		324.00000 
 43692.65567		 961.16730			42731.48837		229.54400		875.00000 
 43692.65567		 305.27265			43387.38302		70.72000		324.00000 
 43692.65567		 961.16730			42731.48837		229.54400		875.00000 
 43692.65567		 305.27265			43387.38302		70.72000		324.00000 
 43692.65567		 961.16730			42731.48837		229.54400		875.00000 
 43692.65567		 305.27265			43387.38302		70.72000		324.00000 
 43692.65567		 961.16730			42731.48837		229.54400		875.00000 
 43692.65567		 305.27265			43387.38302		70.72000		324.00000 
 43692.65567		 961.16730			42731.48837		229.54400		875.00000 
 43692.65567		 305.27265			43387.38302		70.72000		324.00000 
 43692.65567		 961.16730			42731.48837		229.54400		875.00000 
 43692.65567		 305.27265			43387.38302		70.72000		324.00000 
 43692.65567		 961.16730			42731.48837		229.54400		875.00000 
 43692.65567		 305.27265			43387.38302		70.72000		324.00000 
 43692.65567		 961.16730			42731.48837		229.54400		875.00000 
 43692.65567		 305.27265			43387.38302		70.72000		324.00000 
 43692.65567		 961.16730			42731.48837		229.54400		875.00000 
 43692.65567		 305.27265			43387.38302		70.72000		324.00000 
 43692.65567		 961.16730			42731.48837		229.54400		875.00000 
 43692.65567		 305.27265			43387.38302		70.72000		324.00000 
 43692.65567		 961.16730			42731.48837		229.54400		875.00000 
 43692.65567		 305.27265			43387.38302		70.72000		324.00000 
 43692.65567		 961.16730			42731.48837		229.54400		875.00000 
 43692.65567		 305.27265			43387.38302		70.72000		324.00000 
 43692.65567		 961.16730			42731.48837		229.54400		875.00000 
 43692.65567		 305.27265			43387.38302		70.72000		324.00000 
 43692.65567		 961.16730			42731.48837		229.54400		875.00000 
 43692.65567		 305.27265			43387.38302		70.72000		324.00000 
 43692.65567		 961.16730			42731.48837		229.54400		875.00000 
 43692.65567		 305.27265			43387.38302		70.72000		324.00000 
 43692.65567		 961.16730			42731.48837		229.54400		875.00000 
 43692.65567		 305.27265			43387.38302		70.72000		324.00000 
 43692.65567		 961.16730			42731.48837		229.54400		875.00000 
 43692.65567		 305.27265			43387.38302		70.72000		324.00000 
 43692.65567		 961.16730			42731.48837		229.54400		875.00000 
 43692.65567		 305.27265			43387.38302		70.72000		324.00000 
 43692.65567		 961.16730			42731.48837		229.54400		875.00000 
 43692.65567		 305.27265			43387.38302		70.72000		324.00000 
 43692.65567		 961.16730			42731.48837		229.54400		875.00000 
 43692.65567		 305.27265			43387.38302		70.72000		324.00000 
 43692.65567		 961.16730			42731.48837		229.54400		875.00000 
 43692.65567		 305.27265			43387.38302		70.72000		324.00000 
 43692.65567		 961.16730			42731.48837		229.54400		875.00000 
 43692.65567		 305.27265			43387.38302		70.72000		324.00000 
 43692.65567		 961.16730			42731.48837		229.54400		875.00000 
 43692.65567		 305.27265			43387.38302		70.72000		324.00000 
 43692.65567		 961.16730			42731.48837		229.54400		875.00000 
 43692.65567		 305.27265			43387.38302		70.72000		324.00000 
 43692.65567		 961.16730			42731.48837		229.54400		875.00000 
 43692.65567		 305.27265			43387.38302		70.72000		324.00000 
 43692.65567		 961.16730			42731.48837		229.54400		875.00000 
 43692.65567		 305.27265			43387.38302		70.72000		324.00000 
 43692.65567		 961.16730			42731.48837		229.54400		875.00000 
 43692.65567		 305.27265			43387.38302		70.72000		324.00000 
 43692.65567		 961.16730			42731.48837		229.54400		875.00000 
 43692.65567		 305.27265			43387.38302		70.72000		324.00000 
 43692.65567		 961.16730			42731.48837		229.54400		875.00000 
 43692.65567		 305.27265			43387.38302		70.72000		324.00000 
 43692.65567		 961.16730			42731.48837		229.54400		875.00000 
 43692.65567		 305.27265			43387.38302		70.72000		324.00000 
 43692.65567		 961.16730			42731.48837		229.54400		875.00000 
 43692.65567		 305.27265			43387.38302		70.72000		324.00000 
 43692.65567		 961.16730			42731.48837		229.54400		875.00000 
 43692.65567		 305.27265			43387.38302		70.72000		324.00000 
 43692.65567		 961.16730			42731.48837		229.54400		875.00000 
 43692.65567		 305.27265			43387.38302		70.72000		324.00000 
 43692.65567		 961.16730			42731.48837		229.54400		875.00000 
 43692.65567		 305.27265			43387.38302		70.72000		324.00000 
 43692.65567		 961.16730			42731.48837		229.54400		875.00000 
 43692.65567		 305.27265			43387.38302		70.72000		324.00000 
 43692.65567		 961.16730			42731.48837		229.54400		875.00000 
 43692.65567		 305.27265			43387.38302		70.72000		324.00000 
 43692.65567		 961.16730			42731.48837		229.54400		875.00000 
 43692.65567		 305.27265			43387.38302		70.72000		324.00000 
 43692.65567		 961.16730			42731.48837		229.54400		875.00000 
 43692.65567		 305.27265			43387.38302		70.72000		324.00000 
 43692.65567		 961.16730			42731.48837		229.54400		875.00000 
 43692.65567		 305.27265			43387.38302		70.72000		324.00000 
 43692.65567		 961.16730			42731.48837		229.54400		875.00000 
 43692.65567		 305.27265			43387.38302		70.72000		324.00000 
 43692.65567		 961.16730			42731.48837		229.54400		875.00000 
 43692.65567		 305.27265			43387.38302		70.72000		324.00000 
 43692.65567		 961.16730			42731.48837		229.54400		875.00000 
 43692.65567		 305.27265			43387.38302		70.72000		324.00000 
 43692.65567		 961.16730			42731.48837		229.54400		875.00000 
 43692.65567		 305.27265			43387.38302		70.72000		324.00000 
 43692.65567		 961.16730			42731.48837		229.54400		875.00000 
 43692.65567		 305.27265			43387.38302		70.72000		324.00000 
 43692.65567		 961.16730			42731.48837		229.54400		875.00000 
 43692.65567		 305.27265			43387.38302		70.72000		324.00000 
 43692.65567		 961.16730			42731.48837		229.54400		875.00000 
 43692.65567		 305.27265			43387.38302		70.72000		324.00000 
 43692.65567		 961.16730			42731.48837		229.54400		875.00000 
 43692.65567		 305.27265			43387.38302		70.72000		324.00000 
 43692.65567		 961.16730			42731.48837		229.54400		875.00000 
 43692.65567		 305.27265			43387.38302		70.72000		324.00000 
 43692.65567		 961.16730			42731.48837		229.54400		875.00000 
 43692.65567		 305.27265			43387.38302		70.72000		324.00000 
 43692.65567		 961.16730			42731.48837		229.54400		875.00000 
 43692.65567		 305.27265			43387.38302		70.72000		324.00000 
 43692.65567		 961.16730			42731.48837		229.54400		875.00000 
 43692.65567		 305.27265			43387.38302		70.72000		324.00000 
 43692.65567		 961.16730			42731.48837		229.54400		875.00000 
 43692.65567		 305.27265			43387.38302		70.72000		324.00000 
 43692.65567		 961.16730			42731.48837		229.54400		875.00000 
 43692.65567		 305.27265			43387.38302		70.72000		324.00000 
 43692.65567		 961.16730			42731.48837		229.54400		875.00000 
 43692.65567		 305.27265			43387.38302		70.72000		324.00000 
 43692.65567		 961.16730			42731.48837		229.54400		875.00000 
 43692.65567		 305.27265			43387.38302		70.72000		324.00000 
 43692.65567		 961.16730			42731.48837		229.54400		875.00000 
 43692.65567		 305.27265			43387.38302		70.72000		324.00000 
 43692.65567		 961.16730			42731.48837		229.54400		875.00000 
 43692.65567		 305.27265			43387.38302		70.72000		324.00000 
 43692.65567		 961.16730			42731.48837		229.54400		875.00000 
 43692.65567		 305.27265			43387.38302		70.72000		324.00000 
 43692.65567		 961.16730			42731.48837		229.54400		875.00000 
 43692.65567		 305.27265			43387.38302		70.72000		324.00000 
 43692.65567		 961.16730			42731.48837		229.54400		875.00000 
 43692.65567		 305.27265			43387.38302		70.72000		324.00000 
 43692.65567		 961.16730			42731.48837		229.54400		875.00000 
 43692.65567		 305.27265			43387.38302		70.72000		324.00000 
 43692.65567		 961.16730			42731.48837		229.54400		875.00000 
 43692.65567		 305.27265			43387.38302		70.72000		324.00000 
 43692.65567		 961.16730			42731.48837		229.54400		875.00000 
 43692.65567		 305.27265			43387.38302		70.72000		324.00000 
 43692.65567		 961.16730			42731.48837		229.54400		875.00000 
 43692.65567		 305.27265			43387.38302		70.72000		324.00000 
 43692.65567		 961.16730			42731.48837		229.54400		875.00000 
 43692.65567		 305.27265			43387.38302		70.72000		324.00000 
 43692.65567		 961.16730			42731.48837		229.54400		875.00000 
 43692.65567		 305.27265			43387.38302		70.72000		324.00000 
 43692.65567		 961.16730			42731.48837		229.54400		875.00000 
 43692.65567		 305.27265			43387.38302		70.72000		324.00000 
 43692.65567		 961.16730			42731.48837		229.54400		875.00000 
 43692.65567		 305.27265			43387.38302		70.72000		324.00000 
 43692.65567		 961.16730			42731.48837		229.54400		875.00000 
 43692.65567		 305.27265			43387.38302		70.72000		324.00000 
 43692.65567		 961.16730			42731.48837		229.54400		875.00000 
 43692.65567		 305.27265			43387.38302		70.72000		324.00000 
 43692.65567		 961.16730			42731.48837		229.54400		875.00000 
 43692.65567		 305.27265			43387.38302		70.72000		324.00000 
 43692.65567		 961.16730			42731.48837		229.54400		875.00000 
 43692.65567		 305.27265			43387.38302		70.72000		324.00000 
 43692.65567		 961.16730			42731.48837		229.54400		875.00000 
 43692.65567		 305.27265			43387.38302		70.72000		324.00000 
 43692.65567		 961.16730			42731.48837		229.54400		875.00000 
 43692.65567		 305.27265			43387.38302		70.72000		324.00000 
 43692.65567		 961.16730			42731.48837		229.54400		875.00000 
 43692.65567		 305.27265			43387.38302		70.72000		324.00000 
 43692.65567		 961.16730			42731.48837		229.54400		875.00000 
 43692.65567		 305.27265			43387.38302		70.72000		324.00000 
 43692.65567		 961.16730			42731.48837		229.54400		875.00000 
 43692.65567		 305.27265			43387.38302		70.72000		324.00000 
 43692.65567		 961.16730			42731.48837		229.54400		875.00000 
 43692.65567		 305.27265			43387.38302		70.72000		324.00000 
 43692.65567		 961.16730			42731.48837		229.54400		875.00000 
 43692.65567		 305.27265			43387.38302		70.72000		324.00000 
 43692.65567		 961.16730			42731.48837		229.54400		875.00000 
 43692.65567		 305.27265			43387.38302		70.72000		324.00000 
 43692.65567		 961.16730			42731.48837		229.54400		875.00000 
 43692.65567		 305.27265			43387.38302		70.72000		324.00000 
 43692.65567		 961.16730			42731.48837		229.54400		875.00000 
 43692.65567		 305.27265			43387.38302		70.72000		324.00000 
 43692.65567		 961.16730			42731.48837		229.54400		875.00000 
 43692.65567		 305.27265			43387.38302		70.72000		324.00000 
 43692.65567		 961.16730			42731.48837		229.54400		875.00000 
 43692.65567		 305.27265			43387.38302		70.72000		324.00000 
 43692.65567		 961.16730			42731.48837		229.54400		875.00000 
 43692.65567		 305.27265			43387.38302		70.72000		324.00000 
 43692.65567		 961.16730			42731.48837		229.54400		875.00000 
 43692.65567		 305.27265			43387.38302		70.72000		324.00000 
 43692.65567		 961.16730			42731.48837		229.54400		875.00000 
 43692.65567		 305.27265			43387.38302		70.72000		324.00000 
 43692.65567		 961.16730			42731.48837		229.54400		875.00000 
 43692.65567		 305.27265			43387.38302		70.72000		324.00000 
 43692.65567		 961.16730			42731.48837		229.54400		875.00000 
 43692.65567		 305.27265			43387.38302		70.72000		324.00000 
 43692.65567		 961.16730			42731.48837		229.54400		875.00000 
 43692.65567		 305.27265			43387.38302		70.72000		324.00000 
 43692.65567		 961.16730			42731.48837		229.54400		875.00000 
 43692.65567		 305.27265			43387.38302		70.72000		324.00000 
 43692.65567		 961.16730			42731.48837		229.54400		875.00000 
 43692.65567		 305.27265			43387.38302		70.72000		324.00000 
 43692.65567		 961.16730			42731.48837		229.54400		875.00000 
 43692.65567		 305.27265			43387.38302		70.72000		324.00000 
 43692.65567		 961.16730			42731.48837		229.54400		875.00000 
 43692.65567		 305.27265			43387.38302		70.72000		324.00000 
 43692.65567		 961.16730			42731.48837		229.54400		875.00000 
 43692.65567		 305.27265			43387.38302		70.72000		324.00000 
 43692.65567		 961.16730			42731.48837		229.54400		875.00000 
 43692.65567		 305.27265			43387.38302		70.72000		324.00000 
 43692.65567		 961.16730			42731.48837		229.54400		875.00000 
 43692.65567		 305.27265			43387.38302		70.72000		324.00000 
 43692.65567		 961.16730			42731.48837		229.54400		875.00000 
 43692.65567		 305.27265			43387.38302		70.72000		324.00000 
 43692.65567		 961.16730			42731.48837		229.54400		875.00000 
 43692.65567		 305.27265			43387.38302		70.72000		324.00000 
 43692.65567		 961.16730			42731.48837		229.54400		875.00000 
 43692.65567		 305.27265			43387.38302		70.72000		324.00000 
 43692.65567		 961.16730			42731.48837		229.54400		875.00000 
 43692.65567		 305.27265			43387.38302		70.72000		324.00000 
 43692.65567		 961.16730			42731.48837		229.54400		875.00000 
 43692.65567		 305.27265			43387.38302		70.72000		324.00000 
 43692.65567		 961.16730			42731.48837		229.54400		875.00000 
 43692.65567		 305.27265			43387.38302		70.72000		324.00000 
 43692.65567		 961.16730			42731.48837		229.54400		875.00000 
 43692.65567		 305.27265			43387.38302		70.72000		324.00000 
 43692.65567		 961.16730			42731.48837		229.54400		875.00000 
 43692.65567		 305.27265			43387.38302		70.72000		324.00000 
 43692.65567		 961.16730			42731.48837		229.54400		875.00000 
 43692.65567		 305.27265			43387.38302		70.72000		324.00000 
 43692.65567		 961.16730			42731.48837		229.54400		875.00000 
 43692.65567		 305.27265			43387.38302		70.72000		324.00000 
 43692.65567		 961.16730			42731.48837		229.54400		875.00000 
 43692.65567		 305.27265			43387.38302		70.72000		324.00000 
 43692.65567		 961.16730			42731.48837		229.54400		875.00000 
 43692.65567		 305.27265			43387.38302		70.72000		324.00000 
 43692.65567		 961.16730			42731.48837		229.54400		875.00000 
 43692.65567		 305.27265			43387.38302		70.72000		324.00000 
 43692.65567		 961.16730			42731.48837		229.54400		875.00000 
 43692.65567		 305.27265			43387.38302		70.72000		324.00000 
 43692.65567		 961.16730			42731.48837		229.54400		875.00000 
 43692.65567		 305.27265			43387.38302		70.72000		324.00000 
 43692.65567		 961.16730			42731.48837		229.54400		875.00000 
 43692.65567		 305.27265			43387.38302		70.72000		324.00000 
 43692.65567		 961.16730			42731.48837		229.54400		875.00000 
 43692.65567		 305.27265			43387.38302		70.72000		324.00000 
 43692.65567		 961.16730			42731.48837		229.54400		875.00000 
 43692.65567		 305.27265			43387.38302		70.72000		324.00000 
 43692.65567		 961.16730			42731.48837		229.54400		875.00000 
 43692.65567		 305.27265			43387.38302		70.72000		324.00000 
 43692.65567		 961.16730			42731.48837		229.54400		875.00000 
 43692.65567		 305.27265			43387.38302		70.72000		324.00000 
 43692.65567		 961.16730			42731.48837		229.54400		875.00000 
 43692.65567		 305.27265			43387.38302		70.72000		324.00000 
 43692.65567		 961.16730			42731.48837		229.54400		875.00000 
 43692.65567		 305.27265			43387.38302		70.72000		324.00000 
 43692.65567		 961.16730			42731.48837		229.54400		875.00000 
 43692.65567		 305.27265			43387.38302		70.72000		324.00000 
 43692.65567		 961.16730			42731.48837		229.54400		875.00000 
 43692.65567		 305.27265			43387.38302		70.72000		324.00000 
 43692.65567		 961.16730			42731.48837		229.54400		875.00000 
 43692.65567		 305.27265			43387.38302		70.72000		324.00000 
 43692.65567		 961.16730			42731.48837		229.54400		875.00000 
 43692.65567		 305.27265			43387.38302		70.72000		324.00000 
 43692.65567		 961.16730			42731.48837		229.54400		875.00000 
 43692.65567		 305.27265			43387.38302		70.72000		324.00000 
 43692.65567		 961.16730			42731.48837		229.54400		875.00000 
 43692.65567		 305.27265			43387.38302		70.72000		324.00000 
 43692.65567		 961.16730			42731.48837		229.54400		875.00000 
 43692.65567		 305.27265			43387.38302		70.72000		324.00000 
 43692.65567		 961.16730			42731.48837		229.54400		875.00000 
 43692.65567		 305.27265			43387.38302		70.72000		324.00000 
 43692.65567		 961.16730			42731.48837		229.54400		875.00000 
 43692.65567		 305.27265			43387.38302		70.72000		324.00000 
 43692.65567		 961.16730			42731.48837		229.54400		875.00000 
 43692.65567		 305.27265			43387.38302		70.72000		324.00000 
 43692.65567		 961.16730			42731.48837		229.54400		875.00000 
 43692.65567		 305.27265			43387.38302		70.72000		324.00000 
 43692.65567		 961.16730			42731.48837		229.54400		875.00000 
 43692.65567		 305.27265			43387.38302		70.72000		324.00000 
 43692.65567		 961.16730			42731.48837		229.54400		875.00000 
 43692.65567		 305.27265			43387.38302		70.72000		324.00000 
 43692.65567		 961.16730			42731.48837		229.54400		875.00000 
 43692.65567		 305.27265			43387.38302		70.72000		324.00000 
 43692.65567		 961.16730			42731.48837		229.54400		875.00000 
 43692.65567		 305.27265			43387.38302		70.72000		324.00000 
 43692.65567		 961.16730			42731.48837		229.54400		875.00000 
 43692.65567		 305.27265			43387.38302		70.72000		324.00000 
 43692.65567		 961.16730			42731.48837		229.54400		875.00000 
 43692.65567		 305.27265			43387.38302		70.72000		324.00000 
 43692.65567		 961.16730			42731.48837		229.54400		875.00000 
 43692.65567		 305.27265			43387.38302		69.63800		324.00000 
 43692.65567		 961.16730			42731.48837		229.54400		875.00000 
 43692.65567		 305.27265			43387.38302		69.63800		324.00000 
 43692.65567		 961.16730			42731.48837		229.54400		875.00000 
 43692.65567		 305.27265			43387.38302		69.63800		324.00000 
 43692.65567		 961.16730			42731.48837		229.54400		875.00000 
 43692.65567		 305.27265			43387.38302		69.63800		324.00000 
 43692.65567		 961.16730			42731.48837		229.54400		875.00000 
 43692.65567		 305.27265			43387.38302		69.63800		324.00000 
 43692.65567		 961.16730			42731.48837		229.54400		875.00000 
 43692.65567		 305.27265			43387.38302		69.63800		324.00000 
 43692.65567		 961.16730			42731.48837		229.54400		875.00000 
 43692.65567		 305.27265			43387.38302		69.63800		324.00000 
 43692.65567		 961.16730			42731.48837		229.54400		875.00000 
 43692.65567		 305.27265			43387.38302		69.63800		324.00000 
 43692.65567		 961.16730			42731.48837		229.54400		875.00000 
 43692.65567		 305.27265			43387.38302		69.63800		324.00000 
 43692.65567		 961.16730			42731.48837		229.54400		875.00000 
 43692.65567		 305.27265			43387.38302		69.63800		324.00000 
 43692.65567		 961.16730			42731.48837		229.54400		875.00000 
 43692.65567		 305.27265			43387.38302		69.63800		324.00000 
 43692.65567		 961.16730			42731.48837		229.54400		875.00000 
 43692.65567		 305.27265			43387.38302		69.63800		324.00000 
 43692.65567		 961.16730			42731.48837		229.54400		875.00000 
 43692.65567		 305.27265			43387.38302		69.63800		324.00000 
 43692.65567		 961.16730			42731.48837		229.54400		875.00000 
 43692.65567		 305.27265			43387.38302		69.63800		324.00000 
 43692.65567		 961.16730			42731.48837		229.54400		875.00000 
 43692.65567		 305.27265			43387.38302		69.63800		324.00000 
 43692.65567		 961.16730			42731.48837		229.54400		875.00000 
 43692.65567		 305.27265			43387.38302		69.63800		324.00000 
 43692.65567		 961.16730			42731.48837		229.54400		875.00000 
 43692.65567		 305.27265			43387.38302		69.63800		324.00000 
 43692.65567		 961.16730			42731.48837		229.54400		875.00000 
 43692.65567		 305.27265			43387.38302		69.63800		324.00000 
 43692.65567		 961.16730			42731.48837		229.54400		875.00000 
 43692.65567		 305.27265			43387.38302		69.63800		324.00000 
 43692.65567		 961.16730			42731.48837		229.54400		875.00000 
 43692.65567		 305.27265			43387.38302		69.63800		324.00000 
 43692.65567		 961.16730			42731.48837		229.54400		875.00000 
 43692.65567		 305.27265			43387.38302		69.63800		324.00000 
 43692.65567		 961.16730			42731.48837		229.54400		875.00000 
 43692.65567		 305.27265			43387.38302		69.63800		324.00000 
 43692.65567		 961.16730			42731.48837		229.54400		875.00000 
 43692.65567		 305.27265			43387.38302		69.63800		324.00000 
 43692.65567		 961.16730			42731.48837		229.54400		875.00000 
 43692.65567		 305.27265			43387.38302		69.63800		324.00000 
 43692.65567		 961.16730			42731.48837		229.54400		875.00000 
 43692.65567		 305.27265			43387.38302		69.63800		324.00000 
 43692.65567		 961.16730			42731.48837		229.54400		875.00000 
 43692.65567		 305.27265			43387.38302		69.63800		324.00000 
 43692.65567		 961.16730			42731.48837		229.54400		875.00000 
 43692.65567		 305.27265			43387.38302		69.63800		324.00000 
 43692.65567		 961.16730			42731.48837		229.54400		875.00000 
 43692.65567		 305.27265			43387.38302		69.63800		324.00000 
 43692.65567		 961.16730			42731.48837		229.54400		875.00000 
 43692.65567		 305.27265			43387.38302		69.63800		324.00000 
 43692.65567		 961.16730			42731.48837		229.54400		875.00000 
 43692.65567		 305.27265			43387.38302		69.63800		324.00000 
 43692.65567		 961.16730			42731.48837		229.54400		875.00000 
 43692.65567		 305.27265			43387.38302		69.63800		324.00000 
 43692.65567		 961.16730			42731.48837		229.54400		875.00000 
 43692.65567		 305.27265			43387.38302		69.63800		324.00000 
 43692.65567		 961.16730			42731.48837		229.54400		875.00000 
 43692.65567		 305.27265			43387.38302		69.63800		324.00000 
 43692.65567		 961.16730			42731.48837		229.54400		875.00000 
 43692.65567		 305.27265			43387.38302		69.63800		324.00000 
 43692.65567		 961.16730			42731.48837		229.54400		875.00000 
 43692.65567		 305.27265			43387.38302		69.63800		324.00000 
 43692.65567		 961.16730			42731.48837		229.54400		875.00000 
 43692.65567		 305.27265			43387.38302		69.63800		324.00000 
 43692.65567		 961.16730			42731.48837		229.54400		875.00000 
 43692.65567		 305.27265			43387.38302		69.63800		324.00000 
 43692.65567		 961.16730			42731.48837		229.54400		875.00000 
 43692.65567		 305.27265			43387.38302		69.63800		324.00000 
 43692.65567		 961.16730			42731.48837		229.54400		875.00000 
 43692.65567		 305.27265			43387.38302		69.63800		324.00000 
 43692.65567		 961.16730			42731.48837		229.54400		875.00000 
 43692.65567		 305.27265			43387.38302		69.63800		324.00000 
 43692.65567		 961.16730			42731.48837		229.54400		875.00000 
 43692.65567		 305.27265			43387.38302		69.63800		324.00000 
 43692.65567		 961.16730			42731.48837		229.54400		875.00000 
 43692.65567		 305.27265			43387.38302		69.63800		324.00000 
 43692.65567		 961.16730			42731.48837		229.54400		875.00000 
 43692.65567		 305.27265			43387.38302		69.63800		324.00000 
 43692.65567		 961.16730			42731.48837		229.54400		875.00000 
 43692.65567		 305.27265			43387.38302		69.63800		324.00000 
 43692.65567		 961.16730			42731.48837		229.54400		875.00000 
 43692.65567		 305.27265			43387.38302		69.63800		324.00000 
 43692.65567		 961.16730			42731.48837		229.54400		875.00000 
 43692.65567		 305.27265			43387.38302		69.63800		324.00000 
 43692.65567		 961.16730			42731.48837		229.54400		875.00000 
 43692.65567		 305.27265			43387.38302		69.63800		324.00000 
 43692.65567		 961.16730			42731.48837		229.54400		875.00000 
 43692.65567		 305.27265			43387.38302		69.63800		324.00000 
 43692.65567		 961.16730			42731.48837		229.54400		875.00000 
 43692.65567		 305.27265			43387.38302		69.63800		324.00000 
 43692.65567		 961.16730			42731.48837		229.54400		875.00000 
 43692.65567		 305.27265			43387.38302		69.63800		324.00000 
 43692.65567		 961.16730			42731.48837		229.54400		875.00000 
 43692.65567		 305.27265			43387.38302		69.63800		324.00000 
 43692.65567		 961.16730			42731.48837		229.54400		875.00000 
 43692.65567		 305.27265			43387.38302		69.63800		324.00000 
 43692.65567		 961.16730			42731.48837		229.54400		875.00000 
 43692.65567		 305.27265			43387.38302		69.63800		324.00000 
 43692.65567		 961.16730			42731.48837		229.54400		875.00000 
 43692.65567		 305.27265			43387.38302		69.63800		324.00000 
 43692.65567		 961.16730			42731.48837		229.54400		875.00000 
 43692.65567		 305.27265			43387.38302		69.63800		324.00000 
 43692.65567		 961.16730			42731.48837		229.54400		875.00000 
 43692.65567		 305.27265			43387.38302		69.63800		324.00000 
 43692.65567		 961.16730			42731.48837		229.54400		875.00000 
 43692.65567		 305.27265			43387.38302		69.63800		324.00000 
 43692.65567		 961.16730			42731.48837		229.54400		875.00000 
 43692.65567		 305.27265			43387.38302		69.63800		324.00000 
 43692.65567		 961.16730			42731.48837		229.54400		875.00000 
 43692.65567		 305.27265			43387.38302		69.63800		324.00000 
 43692.65567		 961.16730			42731.48837		229.54400		875.00000 
 43692.65567		 305.27265			43387.38302		69.63800		324.00000 
 43692.65567		 961.16730			42731.48837		229.54400		875.00000 
 43692.65567		 305.27265			43387.38302		69.63800		324.00000 
 43692.65567		 961.16730			42731.48837		229.54400		875.00000 
 43692.65567		 305.27265			43387.38302		69.63800		324.00000 
 43692.65567		 819.86831			42872.78737		229.54400		875.00000 
 43692.65567		 305.27265			43387.38302		69.63800		324.00000 
 43692.65567		 819.86831			42872.78737		229.54400		875.00000 
 43692.65567		 305.27265			43387.38302		69.63800		324.00000 
 43692.65567		 678.56931			43014.08636		229.54400		875.00000 
 43692.65567		 305.27265			43387.38302		69.63800		324.00000 
 43692.65567		 537.27032			43155.38535		223.42800		875.00000 
 43692.65567		 305.27265			43387.38302		69.63800		324.00000 
 43692.65567		 537.27032			43155.38535		223.42800		875.00000 
 43692.65567		 305.27265			43387.38302		69.63800		324.00000 
 43692.65567		 537.27032			43155.38535		223.42800		875.00000 
 43692.65567		 305.27265			43387.38302		69.63800		324.00000 
 43692.65567		 537.27032			43155.38535		223.42800		875.00000 
 43692.65567		 305.27265			43387.38302		69.63800		324.00000 
 43692.65567		 537.27032			43155.38535		223.42800		875.00000 
 43692.65567		 305.27265			43387.38302		69.63800		324.00000 
 43692.65567		 537.27032			43155.38535		223.42800		875.00000 
 43692.65567		 305.27265			43387.38302		69.63800		324.00000 
 43692.65567		 537.27032			43155.38535		223.42800		875.00000 
 43692.65567		 305.27265			43387.38302		69.63800		324.00000 
 43692.65567		 537.27032			43155.38535		223.42800		875.00000 
 43692.65567		 305.27265			43387.38302		69.63800		324.00000 
 43692.65567		 537.27032			43155.38535		223.42800		875.00000 
 43692.65567		 305.27265			43387.38302		69.63800		324.00000 
 43692.65567		 537.27032			43155.38535		223.42800		875.00000 
 43692.65567		 305.27265			43387.38302		69.63800		324.00000 
 43692.65567		 537.27032			43155.38535		223.42800		875.00000 
 43692.65567		 305.27265			43387.38302		69.63800		324.00000 
 43692.65567		 537.27032			43155.38535		223.42800		875.00000 
 43692.65567		 305.27265			43387.38302		69.63800		324.00000 
 43692.65567		 537.27032			43155.38535		223.42800		875.00000 
 43692.65567		 305.27265			43387.38302		69.63800		324.00000 
 43692.65567		 537.27032			43155.38535		223.42800		875.00000 
 43692.65567		 305.27265			43387.38302		69.63800		324.00000 
 43692.65567		 537.27032			43155.38535		223.42800		875.00000 
 43692.65567		 305.27265			43387.38302		69.63800		324.00000 
 43692.65567		 537.27032			43155.38535		223.42800		875.00000 
 43692.65567		 305.27265			43387.38302		69.63800		324.00000 
 43692.65567		 537.27032			43155.38535		223.42800		875.00000 
 43692.65567		 305.27265			43387.38302		69.63800		324.00000 
 43692.65567		 537.27032			43155.38535		223.42800		875.00000 
 43692.65567		 305.27265			43387.38302		69.63800		324.00000 
 43692.65567		 537.27032			43155.38535		223.42800		875.00000 
 43692.65567		 305.27265			43387.38302		69.63800		324.00000 
 43692.65567		 537.27032			43155.38535		223.42800		875.00000 
 43692.65567		 305.27265			43387.38302		69.63800		324.00000 
 43692.65567		 525.81365			43166.84203		223.42800		875.00000 
 43692.65567		 305.27265			43387.38302		69.63800		324.00000 
 43692.65567		 525.81365			43166.84203		223.42800		875.00000 
 43692.65567		 261.35540			43431.30027		69.63800		324.00000 
 43692.65567		 261.35540			43431.30027		223.42800		875.00000 
 43692.65567		 261.35540			43431.30027		69.63800		324.00000 
