Memory Total (MiB) 	 Memory Used (MiB) 	    Memory Free (MiB) 	 Power Drawed (W) 	 Clocks (Mhz) 	 
 43692.65567		 261.35540			43431.30027		199.05200		875.00000 
 43692.65567		 261.35540			43431.30027		64.65000		324.00000 
 43692.65567		 261.35540			43431.30027		199.05200		875.00000 
 43692.65567		 261.35540			43431.30027		64.65000		324.00000 
 43692.65567		 261.35540			43431.30027		199.05200		875.00000 
 43692.65567		 261.35540			43431.30027		64.65000		324.00000 
 43692.65567		 261.35540			43431.30027		199.05200		875.00000 
 43692.65567		 261.35540			43431.30027		64.65000		324.00000 
 43692.65567		 261.35540			43431.30027		199.05200		875.00000 
 43692.65567		 261.35540			43431.30027		64.65000		324.00000 
 43692.65567		 261.35540			43431.30027		199.05200		875.00000 
 43692.65567		 261.35540			43431.30027		64.65000		324.00000 
 43692.65567		 261.35540			43431.30027		199.05200		875.00000 
 43692.65567		 261.35540			43431.30027		64.65000		324.00000 
 43692.65567		 261.35540			43431.30027		199.05200		875.00000 
 43692.65567		 261.35540			43431.30027		64.65000		324.00000 
 43692.65567		 261.35540			43431.30027		199.05200		875.00000 
 43692.65567		 261.35540			43431.30027		64.65000		324.00000 
 43692.65567		 261.35540			43431.30027		199.05200		875.00000 
 43692.65567		 261.35540			43431.30027		64.65000		324.00000 
 43692.65567		 261.35540			43431.30027		199.05200		875.00000 
 43692.65567		 261.35540			43431.30027		64.65000		324.00000 
 43692.65567		 261.35540			43431.30027		199.05200		875.00000 
 43692.65567		 261.35540			43431.30027		64.65000		324.00000 
 43692.65567		 261.35540			43431.30027		199.05200		875.00000 
 43692.65567		 261.35540			43431.30027		64.65000		324.00000 
 43692.65567		 261.35540			43431.30027		199.05200		875.00000 
 43692.65567		 261.35540			43431.30027		64.65000		324.00000 
 43692.65567		 261.35540			43431.30027		199.05200		875.00000 
 43692.65567		 261.35540			43431.30027		64.65000		324.00000 
 43692.65567		 261.35540			43431.30027		199.05200		875.00000 
 43692.65567		 261.35540			43431.30027		64.65000		324.00000 
 43692.65567		 261.35540			43431.30027		199.05200		875.00000 
 43692.65567		 261.35540			43431.30027		64.65000		324.00000 
 43692.65567		 261.35540			43431.30027		199.05200		875.00000 
 43692.65567		 261.35540			43431.30027		64.65000		324.00000 
 43692.65567		 265.17429			43427.48138		199.05200		875.00000 
 43692.65567		 261.35540			43431.30027		64.65000		324.00000 
 43692.65567		 265.17429			43427.48138		157.73000		875.00000 
 43692.65567		 261.35540			43431.30027		64.65000		324.00000 
 43692.65567		 272.81207			43419.84360		157.73000		875.00000 
 43692.65567		 261.35540			43431.30027		64.65000		324.00000 
 43692.65567		 272.81207			43419.84360		157.73000		875.00000 
 43692.65567		 261.35540			43431.30027		64.65000		324.00000 
 43692.65567		 272.81207			43419.84360		157.73000		875.00000 
 43692.65567		 265.17429			43427.48138		64.65000		324.00000 
 43692.65567		 272.81207			43419.84360		157.73000		875.00000 
 43692.65567		 265.17429			43427.48138		64.65000		324.00000 
 43692.65567		 272.81207			43419.84360		157.73000		875.00000 
 43692.65567		 272.81207			43419.84360		64.65000		324.00000 
 43692.65567		 272.81207			43419.84360		157.73000		875.00000 
 43692.65567		 272.81207			43419.84360		64.65000		324.00000 
 43692.65567		 272.81207			43419.84360		157.73000		875.00000 
 43692.65567		 272.81207			43419.84360		64.65000		324.00000 
 43692.65567		 272.81207			43419.84360		157.73000		875.00000 
 43692.65567		 272.81207			43419.84360		64.65000		324.00000 
 43692.65567		 305.27265			43387.38302		157.73000		875.00000 
 43692.65567		 305.27265			43387.38302		64.65000		324.00000 
 43692.65567		 305.27265			43387.38302		157.73000		875.00000 
 43692.65567		 305.27265			43387.38302		64.65000		324.00000 
 43692.65567		 305.27265			43387.38302		157.73000		875.00000 
 43692.65567		 305.27265			43387.38302		64.65000		324.00000 
 43692.65567		 305.27265			43387.38302		157.73000		875.00000 
 43692.65567		 305.27265			43387.38302		64.65000		324.00000 
 43692.65567		 305.27265			43387.38302		157.73000		875.00000 
 43692.65567		 305.27265			43387.38302		64.65000		324.00000 
 43692.65567		 310.04627			43382.60941		157.73000		875.00000 
 43692.65567		 305.27265			43387.38302		64.65000		324.00000 
 43692.65567		 311.00099			43381.65468		157.73000		875.00000 
 43692.65567		 305.27265			43387.38302		64.65000		324.00000 
 43692.65567		 311.00099			43381.65468		157.73000		875.00000 
 43692.65567		 305.27265			43387.38302		64.65000		324.00000 
 43692.65567		 311.00099			43381.65468		157.73000		875.00000 
 43692.65567		 305.27265			43387.38302		64.65000		324.00000 
 43692.65567		 311.00099			43381.65468		157.73000		875.00000 
 43692.65567		 305.27265			43387.38302		64.65000		324.00000 
 43692.65567		 311.00099			43381.65468		157.73000		875.00000 
 43692.65567		 305.27265			43387.38302		64.65000		324.00000 
 43692.65567		 311.00099			43381.65468		157.73000		875.00000 
 43692.65567		 305.27265			43387.38302		64.65000		324.00000 
 43692.65567		 311.00099			43381.65468		157.73000		875.00000 
 43692.65567		 305.27265			43387.38302		64.65000		324.00000 
 43692.65567		 311.00099			43381.65468		157.73000		875.00000 
 43692.65567		 305.27265			43387.38302		64.65000		324.00000 
 43692.65567		 311.00099			43381.65468		157.73000		875.00000 
 43692.65567		 305.27265			43387.38302		64.65000		324.00000 
 43692.65567		 311.00099			43381.65468		157.73000		875.00000 
 43692.65567		 305.27265			43387.38302		64.65000		324.00000 
 43692.65567		 311.00099			43381.65468		157.73000		875.00000 
 43692.65567		 305.27265			43387.38302		64.65000		324.00000 
 43692.65567		 311.00099			43381.65468		157.73000		875.00000 
 43692.65567		 305.27265			43387.38302		64.65000		324.00000 
 43692.65567		 311.00099			43381.65468		157.73000		875.00000 
 43692.65567		 305.27265			43387.38302		64.65000		324.00000 
 43692.65567		 311.00099			43381.65468		157.73000		875.00000 
 43692.65567		 305.27265			43387.38302		64.65000		324.00000 
 43692.65567		 311.00099			43381.65468		157.73000		875.00000 
 43692.65567		 305.27265			43387.38302		64.65000		324.00000 
 43692.65567		 311.00099			43381.65468		141.03600		875.00000 
 43692.65567		 305.27265			43387.38302		64.65000		324.00000 
 43692.65567		 311.00099			43381.65468		141.03600		875.00000 
 43692.65567		 305.27265			43387.38302		64.65000		324.00000 
 43692.65567		 311.00099			43381.65468		141.03600		875.00000 
 43692.65567		 305.27265			43387.38302		64.65000		324.00000 
 43692.65567		 311.00099			43381.65468		141.03600		875.00000 
 43692.65567		 305.27265			43387.38302		64.65000		324.00000 
 43692.65567		 311.00099			43381.65468		141.03600		875.00000 
 43692.65567		 305.27265			43387.38302		64.65000		324.00000 
 43692.65567		 311.00099			43381.65468		141.03600		875.00000 
 43692.65567		 305.27265			43387.38302		64.65000		324.00000 
 43692.65567		 311.00099			43381.65468		141.03600		875.00000 
 43692.65567		 305.27265			43387.38302		64.65000		324.00000 
 43692.65567		 311.00099			43381.65468		141.03600		875.00000 
 43692.65567		 305.27265			43387.38302		64.65000		324.00000 
 43692.65567		 311.00099			43381.65468		141.03600		875.00000 
 43692.65567		 305.27265			43387.38302		64.65000		324.00000 
 43692.65567		 311.00099			43381.65468		141.03600		875.00000 
 43692.65567		 305.27265			43387.38302		64.65000		324.00000 
 43692.65567		 311.00099			43381.65468		141.03600		875.00000 
 43692.65567		 305.27265			43387.38302		64.65000		324.00000 
 43692.65567		 311.00099			43381.65468		141.03600		875.00000 
 43692.65567		 305.27265			43387.38302		64.65000		324.00000 
 43692.65567		 311.00099			43381.65468		141.03600		875.00000 
 43692.65567		 305.27265			43387.38302		64.65000		324.00000 
 43692.65567		 311.00099			43381.65468		141.03600		875.00000 
 43692.65567		 305.27265			43387.38302		64.65000		324.00000 
 43692.65567		 311.00099			43381.65468		141.03600		875.00000 
 43692.65567		 305.27265			43387.38302		64.65000		324.00000 
 43692.65567		 311.00099			43381.65468		141.03600		875.00000 
 43692.65567		 305.27265			43387.38302		64.65000		324.00000 
 43692.65567		 311.00099			43381.65468		141.03600		875.00000 
 43692.65567		 305.27265			43387.38302		64.65000		324.00000 
 43692.65567		 311.00099			43381.65468		141.03600		875.00000 
 43692.65567		 305.27265			43387.38302		64.65000		324.00000 
 43692.65567		 311.00099			43381.65468		141.03600		875.00000 
 43692.65567		 305.27265			43387.38302		64.65000		324.00000 
 43692.65567		 311.00099			43381.65468		141.03600		875.00000 
 43692.65567		 305.27265			43387.38302		64.65000		324.00000 
 43692.65567		 311.00099			43381.65468		141.03600		875.00000 
 43692.65567		 305.27265			43387.38302		64.65000		324.00000 
 43692.65567		 311.00099			43381.65468		141.03600		875.00000 
 43692.65567		 305.27265			43387.38302		64.65000		324.00000 
 43692.65567		 311.00099			43381.65468		141.03600		875.00000 
 43692.65567		 305.27265			43387.38302		64.65000		324.00000 
 43692.65567		 311.00099			43381.65468		141.03600		875.00000 
 43692.65567		 305.27265			43387.38302		64.65000		324.00000 
 43692.65567		 311.00099			43381.65468		141.03600		875.00000 
 43692.65567		 305.27265			43387.38302		64.65000		324.00000 
 43692.65567		 311.00099			43381.65468		141.03600		875.00000 
 43692.65567		 305.27265			43387.38302		64.65000		324.00000 
 43692.65567		 311.00099			43381.65468		141.03600		875.00000 
 43692.65567		 305.27265			43387.38302		64.65000		324.00000 
 43692.65567		 311.00099			43381.65468		141.03600		875.00000 
 43692.65567		 305.27265			43387.38302		64.65000		324.00000 
 43692.65567		 311.00099			43381.65468		141.03600		875.00000 
 43692.65567		 305.27265			43387.38302		64.65000		324.00000 
 43692.65567		 311.00099			43381.65468		141.03600		875.00000 
 43692.65567		 305.27265			43387.38302		64.65000		324.00000 
 43692.65567		 311.00099			43381.65468		141.03600		875.00000 
 43692.65567		 305.27265			43387.38302		64.65000		324.00000 
 43692.65567		 311.00099			43381.65468		134.65400		875.00000 
 43692.65567		 305.27265			43387.38302		64.65000		324.00000 
 43692.65567		 311.00099			43381.65468		134.65400		875.00000 
 43692.65567		 305.27265			43387.38302		64.65000		324.00000 
 43692.65567		 311.00099			43381.65468		134.65400		875.00000 
 43692.65567		 305.27265			43387.38302		64.65000		324.00000 
 43692.65567		 311.00099			43381.65468		134.65400		875.00000 
 43692.65567		 305.27265			43387.38302		64.65000		324.00000 
 43692.65567		 314.81988			43377.83579		134.65400		875.00000 
 43692.65567		 305.27265			43387.38302		64.65000		324.00000 
 43692.65567		 314.81988			43377.83579		134.65400		875.00000 
 43692.65567		 305.27265			43387.38302		64.65000		324.00000 
 43692.65567		 314.81988			43377.83579		134.65400		875.00000 
 43692.65567		 305.27265			43387.38302		64.65000		324.00000 
 43692.65567		 322.45767			43370.19801		134.65400		875.00000 
 43692.65567		 305.27265			43387.38302		64.65000		324.00000 
 43692.65567		 326.27656			43366.37912		134.65400		875.00000 
 43692.65567		 305.27265			43387.38302		64.65000		324.00000 
 43692.65567		 326.27656			43366.37912		134.65400		875.00000 
 43692.65567		 305.27265			43387.38302		64.65000		324.00000 
 43692.65567		 326.27656			43366.37912		134.65400		875.00000 
 43692.65567		 305.27265			43387.38302		64.65000		324.00000 
 43692.65567		 326.27656			43366.37912		134.65400		875.00000 
 43692.65567		 305.27265			43387.38302		64.65000		324.00000 
 43692.65567		 537.27032			43155.38535		134.65400		875.00000 
 43692.65567		 305.27265			43387.38302		64.65000		324.00000 
 43692.65567		 563.04784			43129.60783		134.65400		875.00000 
 43692.65567		 305.27265			43387.38302		64.65000		324.00000 
 43692.65567		 614.60288			43078.05279		134.65400		875.00000 
 43692.65567		 305.27265			43387.38302		64.65000		324.00000 
 43692.65567		 614.60288			43078.05279		134.65400		875.00000 
 43692.65567		 305.27265			43387.38302		64.65000		324.00000 
 43692.65567		 614.60288			43078.05279		134.65400		875.00000 
 43692.65567		 305.27265			43387.38302		64.65000		324.00000 
 43692.65567		 614.60288			43078.05279		134.65400		875.00000 
 43692.65567		 305.27265			43387.38302		64.65000		324.00000 
 43692.65567		 614.60288			43078.05279		134.65400		875.00000 
 43692.65567		 305.27265			43387.38302		64.65000		324.00000 
 43692.65567		 614.60288			43078.05279		134.65400		875.00000 
 43692.65567		 305.27265			43387.38302		64.65000		324.00000 
 43692.65567		 614.60288			43078.05279		134.65400		875.00000 
 43692.65567		 305.27265			43387.38302		64.65000		324.00000 
 43692.65567		 614.60288			43078.05279		134.65400		875.00000 
 43692.65567		 305.27265			43387.38302		64.65000		324.00000 
 43692.65567		 614.60288			43078.05279		134.65400		875.00000 
 43692.65567		 305.27265			43387.38302		64.65000		324.00000 
 43692.65567		 614.60288			43078.05279		134.65400		875.00000 
 43692.65567		 305.27265			43387.38302		64.65000		324.00000 
 43692.65567		 614.60288			43078.05279		134.65400		875.00000 
 43692.65567		 305.27265			43387.38302		64.65000		324.00000 
 43692.65567		 614.60288			43078.05279		134.65400		875.00000 
 43692.65567		 305.27265			43387.38302		64.65000		324.00000 
 43692.65567		 614.60288			43078.05279		134.65400		875.00000 
 43692.65567		 305.27265			43387.38302		64.65000		324.00000 
 43692.65567		 614.60288			43078.05279		134.65400		875.00000 
 43692.65567		 305.27265			43387.38302		64.65000		324.00000 
 43692.65567		 614.60288			43078.05279		134.65400		875.00000 
 43692.65567		 305.27265			43387.38302		64.65000		324.00000 
 43692.65567		 614.60288			43078.05279		134.65400		875.00000 
 43692.65567		 305.27265			43387.38302		64.65000		324.00000 
 43692.65567		 614.60288			43078.05279		134.65400		875.00000 
 43692.65567		 305.27265			43387.38302		64.65000		324.00000 
 43692.65567		 614.60288			43078.05279		134.65400		875.00000 
 43692.65567		 305.27265			43387.38302		64.65000		324.00000 
 43692.65567		 614.60288			43078.05279		134.65400		875.00000 
 43692.65567		 305.27265			43387.38302		64.65000		324.00000 
 43692.65567		 614.60288			43078.05279		134.65400		875.00000 
 43692.65567		 305.27265			43387.38302		64.65000		324.00000 
 43692.65567		 614.60288			43078.05279		134.65400		875.00000 
 43692.65567		 305.27265			43387.38302		64.65000		324.00000 
 43692.65567		 614.60288			43078.05279		134.65400		875.00000 
 43692.65567		 305.27265			43387.38302		64.65000		324.00000 
 43692.65567		 614.60288			43078.05279		134.65400		875.00000 
 43692.65567		 305.27265			43387.38302		64.65000		324.00000 
 43692.65567		 614.60288			43078.05279		134.65400		875.00000 
 43692.65567		 305.27265			43387.38302		64.65000		324.00000 
 43692.65567		 614.60288			43078.05279		134.65400		875.00000 
 43692.65567		 305.27265			43387.38302		64.65000		324.00000 
 43692.65567		 614.60288			43078.05279		134.65400		875.00000 
 43692.65567		 305.27265			43387.38302		64.65000		324.00000 
 43692.65567		 614.60288			43078.05279		134.65400		875.00000 
 43692.65567		 305.27265			43387.38302		64.65000		324.00000 
 43692.65567		 614.60288			43078.05279		134.65400		875.00000 
 43692.65567		 305.27265			43387.38302		64.65000		324.00000 
 43692.65567		 614.60288			43078.05279		134.65400		875.00000 
 43692.65567		 305.27265			43387.38302		64.65000		324.00000 
 43692.65567		 614.60288			43078.05279		134.65400		875.00000 
 43692.65567		 305.27265			43387.38302		64.65000		324.00000 
 43692.65567		 614.60288			43078.05279		134.65400		875.00000 
 43692.65567		 305.27265			43387.38302		64.65000		324.00000 
 43692.65567		 614.60288			43078.05279		134.65400		875.00000 
 43692.65567		 305.27265			43387.38302		64.65000		324.00000 
 43692.65567		 614.60288			43078.05279		134.65400		875.00000 
 43692.65567		 305.27265			43387.38302		64.65000		324.00000 
 43692.65567		 614.60288			43078.05279		134.65400		875.00000 
 43692.65567		 305.27265			43387.38302		64.65000		324.00000 
 43692.65567		 614.60288			43078.05279		134.65400		875.00000 
 43692.65567		 305.27265			43387.38302		64.65000		324.00000 
 43692.65567		 614.60288			43078.05279		134.65400		875.00000 
 43692.65567		 305.27265			43387.38302		64.65000		324.00000 
 43692.65567		 614.60288			43078.05279		134.65400		875.00000 
 43692.65567		 305.27265			43387.38302		64.65000		324.00000 
 43692.65567		 614.60288			43078.05279		134.65400		875.00000 
 43692.65567		 305.27265			43387.38302		64.65000		324.00000 
 43692.65567		 614.60288			43078.05279		134.65400		875.00000 
 43692.65567		 305.27265			43387.38302		64.65000		324.00000 
 43692.65567		 614.60288			43078.05279		134.65400		875.00000 
 43692.65567		 305.27265			43387.38302		64.65000		324.00000 
 43692.65567		 614.60288			43078.05279		134.65400		875.00000 
 43692.65567		 305.27265			43387.38302		64.65000		324.00000 
 43692.65567		 614.60288			43078.05279		134.65400		875.00000 
 43692.65567		 305.27265			43387.38302		64.65000		324.00000 
 43692.65567		 614.60288			43078.05279		134.65400		875.00000 
 43692.65567		 305.27265			43387.38302		64.65000		324.00000 
 43692.65567		 614.60288			43078.05279		134.65400		875.00000 
 43692.65567		 305.27265			43387.38302		64.65000		324.00000 
 43692.65567		 614.60288			43078.05279		171.27000		875.00000 
 43692.65567		 305.27265			43387.38302		64.65000		324.00000 
 43692.65567		 614.60288			43078.05279		171.27000		875.00000 
 43692.65567		 305.27265			43387.38302		64.65000		324.00000 
 43692.65567		 614.60288			43078.05279		171.27000		875.00000 
 43692.65567		 305.27265			43387.38302		64.65000		324.00000 
 43692.65567		 614.60288			43078.05279		171.27000		875.00000 
 43692.65567		 305.27265			43387.38302		64.65000		324.00000 
 43692.65567		 614.60288			43078.05279		171.27000		875.00000 
 43692.65567		 305.27265			43387.38302		64.65000		324.00000 
 43692.65567		 614.60288			43078.05279		171.27000		875.00000 
 43692.65567		 305.27265			43387.38302		64.65000		324.00000 
 43692.65567		 614.60288			43078.05279		171.27000		875.00000 
 43692.65567		 305.27265			43387.38302		64.65000		324.00000 
 43692.65567		 614.60288			43078.05279		171.27000		875.00000 
 43692.65567		 305.27265			43387.38302		64.65000		324.00000 
 43692.65567		 614.60288			43078.05279		171.27000		875.00000 
 43692.65567		 305.27265			43387.38302		64.65000		324.00000 
 43692.65567		 614.60288			43078.05279		171.27000		875.00000 
 43692.65567		 305.27265			43387.38302		64.65000		324.00000 
 43692.65567		 614.60288			43078.05279		171.27000		875.00000 
 43692.65567		 305.27265			43387.38302		64.65000		324.00000 
 43692.65567		 614.60288			43078.05279		171.27000		875.00000 
 43692.65567		 305.27265			43387.38302		64.65000		324.00000 
 43692.65567		 614.60288			43078.05279		171.27000		875.00000 
 43692.65567		 305.27265			43387.38302		64.65000		324.00000 
 43692.65567		 614.60288			43078.05279		171.27000		875.00000 
 43692.65567		 305.27265			43387.38302		64.65000		324.00000 
 43692.65567		 614.60288			43078.05279		171.27000		875.00000 
 43692.65567		 305.27265			43387.38302		64.65000		324.00000 
 43692.65567		 614.60288			43078.05279		171.27000		875.00000 
 43692.65567		 305.27265			43387.38302		64.65000		324.00000 
 43692.65567		 614.60288			43078.05279		171.27000		875.00000 
 43692.65567		 305.27265			43387.38302		64.65000		324.00000 
 43692.65567		 614.60288			43078.05279		171.27000		875.00000 
 43692.65567		 305.27265			43387.38302		64.65000		324.00000 
 43692.65567		 614.60288			43078.05279		171.27000		875.00000 
 43692.65567		 305.27265			43387.38302		64.65000		324.00000 
 43692.65567		 614.60288			43078.05279		171.27000		875.00000 
 43692.65567		 305.27265			43387.38302		64.65000		324.00000 
 43692.65567		 614.60288			43078.05279		171.27000		875.00000 
 43692.65567		 305.27265			43387.38302		64.65000		324.00000 
 43692.65567		 614.60288			43078.05279		171.27000		875.00000 
 43692.65567		 305.27265			43387.38302		64.65000		324.00000 
 43692.65567		 614.60288			43078.05279		171.27000		875.00000 
 43692.65567		 305.27265			43387.38302		64.65000		324.00000 
 43692.65567		 614.60288			43078.05279		171.27000		875.00000 
 43692.65567		 305.27265			43387.38302		64.65000		324.00000 
 43692.65567		 614.60288			43078.05279		171.27000		875.00000 
 43692.65567		 305.27265			43387.38302		64.65000		324.00000 
 43692.65567		 614.60288			43078.05279		171.27000		875.00000 
 43692.65567		 305.27265			43387.38302		64.65000		324.00000 
 43692.65567		 614.60288			43078.05279		171.27000		875.00000 
 43692.65567		 305.27265			43387.38302		64.65000		324.00000 
 43692.65567		 614.60288			43078.05279		171.27000		875.00000 
 43692.65567		 305.27265			43387.38302		64.65000		324.00000 
 43692.65567		 614.60288			43078.05279		171.27000		875.00000 
 43692.65567		 305.27265			43387.38302		64.65000		324.00000 
 43692.65567		 614.60288			43078.05279		171.27000		875.00000 
 43692.65567		 305.27265			43387.38302		64.65000		324.00000 
 43692.65567		 614.60288			43078.05279		171.27000		875.00000 
 43692.65567		 305.27265			43387.38302		64.65000		324.00000 
 43692.65567		 614.60288			43078.05279		171.27000		875.00000 
 43692.65567		 305.27265			43387.38302		64.65000		324.00000 
 43692.65567		 614.60288			43078.05279		171.27000		875.00000 
 43692.65567		 305.27265			43387.38302		64.65000		324.00000 
 43692.65567		 614.60288			43078.05279		171.27000		875.00000 
 43692.65567		 305.27265			43387.38302		64.65000		324.00000 
 43692.65567		 614.60288			43078.05279		171.27000		875.00000 
 43692.65567		 305.27265			43387.38302		64.65000		324.00000 
 43692.65567		 614.60288			43078.05279		171.27000		875.00000 
 43692.65567		 305.27265			43387.38302		64.65000		324.00000 
 43692.65567		 614.60288			43078.05279		171.27000		875.00000 
 43692.65567		 305.27265			43387.38302		64.65000		324.00000 
 43692.65567		 614.60288			43078.05279		171.27000		875.00000 
 43692.65567		 305.27265			43387.38302		64.65000		324.00000 
 43692.65567		 614.60288			43078.05279		171.27000		875.00000 
 43692.65567		 305.27265			43387.38302		64.65000		324.00000 
 43692.65567		 614.60288			43078.05279		171.27000		875.00000 
 43692.65567		 305.27265			43387.38302		64.65000		324.00000 
 43692.65567		 614.60288			43078.05279		171.27000		875.00000 
 43692.65567		 305.27265			43387.38302		64.65000		324.00000 
 43692.65567		 614.60288			43078.05279		171.27000		875.00000 
 43692.65567		 305.27265			43387.38302		64.65000		324.00000 
 43692.65567		 614.60288			43078.05279		171.27000		875.00000 
 43692.65567		 305.27265			43387.38302		64.65000		324.00000 
 43692.65567		 614.60288			43078.05279		171.27000		875.00000 
 43692.65567		 305.27265			43387.38302		64.65000		324.00000 
 43692.65567		 614.60288			43078.05279		171.27000		875.00000 
 43692.65567		 305.27265			43387.38302		64.65000		324.00000 
 43692.65567		 614.60288			43078.05279		171.27000		875.00000 
 43692.65567		 305.27265			43387.38302		64.65000		324.00000 
 43692.65567		 614.60288			43078.05279		171.27000		875.00000 
 43692.65567		 305.27265			43387.38302		64.65000		324.00000 
 43692.65567		 614.60288			43078.05279		171.27000		875.00000 
 43692.65567		 305.27265			43387.38302		64.65000		324.00000 
 43692.65567		 614.60288			43078.05279		171.27000		875.00000 
 43692.65567		 305.27265			43387.38302		64.65000		324.00000 
 43692.65567		 614.60288			43078.05279		171.27000		875.00000 
 43692.65567		 305.27265			43387.38302		64.65000		324.00000 
 43692.65567		 614.60288			43078.05279		171.27000		875.00000 
 43692.65567		 305.27265			43387.38302		64.65000		324.00000 
 43692.65567		 614.60288			43078.05279		171.27000		875.00000 
 43692.65567		 305.27265			43387.38302		64.65000		324.00000 
 43692.65567		 614.60288			43078.05279		171.27000		875.00000 
 43692.65567		 305.27265			43387.38302		64.65000		324.00000 
 43692.65567		 614.60288			43078.05279		171.27000		875.00000 
 43692.65567		 305.27265			43387.38302		64.65000		324.00000 
 43692.65567		 614.60288			43078.05279		171.27000		875.00000 
 43692.65567		 305.27265			43387.38302		64.65000		324.00000 
 43692.65567		 614.60288			43078.05279		171.27000		875.00000 
 43692.65567		 305.27265			43387.38302		64.65000		324.00000 
 43692.65567		 614.60288			43078.05279		171.27000		875.00000 
 43692.65567		 305.27265			43387.38302		64.65000		324.00000 
 43692.65567		 614.60288			43078.05279		171.27000		875.00000 
 43692.65567		 305.27265			43387.38302		64.65000		324.00000 
 43692.65567		 614.60288			43078.05279		171.27000		875.00000 
 43692.65567		 305.27265			43387.38302		64.65000		324.00000 
 43692.65567		 614.60288			43078.05279		171.27000		875.00000 
 43692.65567		 305.27265			43387.38302		64.65000		324.00000 
 43692.65567		 614.60288			43078.05279		171.27000		875.00000 
 43692.65567		 305.27265			43387.38302		64.65000		324.00000 
 43692.65567		 614.60288			43078.05279		171.27000		875.00000 
 43692.65567		 305.27265			43387.38302		64.65000		324.00000 
 43692.65567		 614.60288			43078.05279		171.27000		875.00000 
 43692.65567		 305.27265			43387.38302		64.65000		324.00000 
 43692.65567		 614.60288			43078.05279		171.27000		875.00000 
 43692.65567		 305.27265			43387.38302		64.65000		324.00000 
 43692.65567		 614.60288			43078.05279		171.27000		875.00000 
 43692.65567		 305.27265			43387.38302		64.65000		324.00000 
 43692.65567		 614.60288			43078.05279		198.06600		875.00000 
 43692.65567		 305.27265			43387.38302		64.65000		324.00000 
 43692.65567		 614.60288			43078.05279		198.06600		875.00000 
 43692.65567		 305.27265			43387.38302		64.65000		324.00000 
 43692.65567		 614.60288			43078.05279		198.06600		875.00000 
 43692.65567		 305.27265			43387.38302		64.65000		324.00000 
 43692.65567		 614.60288			43078.05279		198.06600		875.00000 
 43692.65567		 305.27265			43387.38302		64.65000		324.00000 
 43692.65567		 614.60288			43078.05279		198.06600		875.00000 
 43692.65567		 305.27265			43387.38302		64.65000		324.00000 
 43692.65567		 614.60288			43078.05279		198.06600		875.00000 
 43692.65567		 305.27265			43387.38302		64.65000		324.00000 
 43692.65567		 614.60288			43078.05279		198.06600		875.00000 
 43692.65567		 305.27265			43387.38302		64.65000		324.00000 
 43692.65567		 614.60288			43078.05279		198.06600		875.00000 
 43692.65567		 305.27265			43387.38302		64.65000		324.00000 
 43692.65567		 614.60288			43078.05279		198.06600		875.00000 
 43692.65567		 305.27265			43387.38302		64.65000		324.00000 
 43692.65567		 614.60288			43078.05279		198.06600		875.00000 
 43692.65567		 305.27265			43387.38302		64.65000		324.00000 
 43692.65567		 614.60288			43078.05279		198.06600		875.00000 
 43692.65567		 305.27265			43387.38302		64.65000		324.00000 
 43692.65567		 614.60288			43078.05279		198.06600		875.00000 
 43692.65567		 305.27265			43387.38302		64.65000		324.00000 
 43692.65567		 614.60288			43078.05279		198.06600		875.00000 
 43692.65567		 305.27265			43387.38302		64.65000		324.00000 
 43692.65567		 614.60288			43078.05279		198.06600		875.00000 
 43692.65567		 305.27265			43387.38302		64.65000		324.00000 
 43692.65567		 614.60288			43078.05279		198.06600		875.00000 
 43692.65567		 305.27265			43387.38302		64.65000		324.00000 
 43692.65567		 614.60288			43078.05279		198.06600		875.00000 
 43692.65567		 305.27265			43387.38302		69.17800		324.00000 
 43692.65567		 614.60288			43078.05279		198.06600		875.00000 
 43692.65567		 305.27265			43387.38302		69.17800		324.00000 
 43692.65567		 614.60288			43078.05279		198.06600		875.00000 
 43692.65567		 305.27265			43387.38302		69.17800		324.00000 
 43692.65567		 614.60288			43078.05279		198.06600		875.00000 
 43692.65567		 305.27265			43387.38302		69.17800		324.00000 
 43692.65567		 614.60288			43078.05279		198.06600		875.00000 
 43692.65567		 305.27265			43387.38302		69.17800		324.00000 
 43692.65567		 614.60288			43078.05279		198.06600		875.00000 
 43692.65567		 305.27265			43387.38302		69.17800		324.00000 
 43692.65567		 614.60288			43078.05279		198.06600		875.00000 
 43692.65567		 305.27265			43387.38302		69.17800		324.00000 
 43692.65567		 614.60288			43078.05279		198.06600		875.00000 
 43692.65567		 305.27265			43387.38302		69.17800		324.00000 
 43692.65567		 614.60288			43078.05279		198.06600		875.00000 
 43692.65567		 305.27265			43387.38302		69.17800		324.00000 
 43692.65567		 614.60288			43078.05279		198.06600		875.00000 
 43692.65567		 305.27265			43387.38302		69.17800		324.00000 
 43692.65567		 614.60288			43078.05279		198.06600		875.00000 
 43692.65567		 305.27265			43387.38302		69.17800		324.00000 
 43692.65567		 614.60288			43078.05279		198.06600		875.00000 
 43692.65567		 305.27265			43387.38302		69.17800		324.00000 
 43692.65567		 614.60288			43078.05279		198.06600		875.00000 
 43692.65567		 305.27265			43387.38302		69.17800		324.00000 
 43692.65567		 614.60288			43078.05279		198.06600		875.00000 
 43692.65567		 305.27265			43387.38302		69.17800		324.00000 
 43692.65567		 614.60288			43078.05279		198.06600		875.00000 
 43692.65567		 305.27265			43387.38302		69.17800		324.00000 
 43692.65567		 614.60288			43078.05279		198.06600		875.00000 
 43692.65567		 305.27265			43387.38302		69.17800		324.00000 
 43692.65567		 614.60288			43078.05279		198.06600		875.00000 
 43692.65567		 305.27265			43387.38302		69.17800		324.00000 
 43692.65567		 614.60288			43078.05279		198.06600		875.00000 
 43692.65567		 305.27265			43387.38302		69.17800		324.00000 
 43692.65567		 614.60288			43078.05279		198.06600		875.00000 
 43692.65567		 305.27265			43387.38302		69.17800		324.00000 
 43692.65567		 614.60288			43078.05279		198.06600		875.00000 
 43692.65567		 305.27265			43387.38302		69.17800		324.00000 
 43692.65567		 614.60288			43078.05279		198.06600		875.00000 
 43692.65567		 305.27265			43387.38302		69.17800		324.00000 
 43692.65567		 614.60288			43078.05279		198.06600		875.00000 
 43692.65567		 305.27265			43387.38302		69.17800		324.00000 
 43692.65567		 614.60288			43078.05279		198.06600		875.00000 
 43692.65567		 305.27265			43387.38302		69.17800		324.00000 
 43692.65567		 614.60288			43078.05279		198.06600		875.00000 
 43692.65567		 305.27265			43387.38302		69.17800		324.00000 
 43692.65567		 614.60288			43078.05279		198.06600		875.00000 
 43692.65567		 305.27265			43387.38302		69.17800		324.00000 
 43692.65567		 614.60288			43078.05279		198.06600		875.00000 
 43692.65567		 305.27265			43387.38302		69.17800		324.00000 
 43692.65567		 614.60288			43078.05279		198.06600		875.00000 
 43692.65567		 305.27265			43387.38302		69.17800		324.00000 
 43692.65567		 614.60288			43078.05279		198.06600		875.00000 
 43692.65567		 305.27265			43387.38302		69.17800		324.00000 
 43692.65567		 614.60288			43078.05279		198.06600		875.00000 
 43692.65567		 305.27265			43387.38302		69.17800		324.00000 
 43692.65567		 614.60288			43078.05279		198.06600		875.00000 
 43692.65567		 305.27265			43387.38302		69.17800		324.00000 
 43692.65567		 614.60288			43078.05279		198.06600		875.00000 
 43692.65567		 305.27265			43387.38302		69.17800		324.00000 
 43692.65567		 614.60288			43078.05279		198.06600		875.00000 
 43692.65567		 305.27265			43387.38302		69.17800		324.00000 
 43692.65567		 614.60288			43078.05279		198.06600		875.00000 
 43692.65567		 305.27265			43387.38302		69.17800		324.00000 
 43692.65567		 614.60288			43078.05279		198.06600		875.00000 
 43692.65567		 305.27265			43387.38302		69.17800		324.00000 
 43692.65567		 614.60288			43078.05279		198.06600		875.00000 
 43692.65567		 305.27265			43387.38302		69.17800		324.00000 
 43692.65567		 614.60288			43078.05279		198.06600		875.00000 
 43692.65567		 305.27265			43387.38302		69.17800		324.00000 
 43692.65567		 614.60288			43078.05279		198.06600		875.00000 
 43692.65567		 305.27265			43387.38302		69.17800		324.00000 
 43692.65567		 614.60288			43078.05279		198.06600		875.00000 
 43692.65567		 305.27265			43387.38302		69.17800		324.00000 
 43692.65567		 614.60288			43078.05279		198.06600		875.00000 
 43692.65567		 305.27265			43387.38302		69.17800		324.00000 
 43692.65567		 614.60288			43078.05279		198.06600		875.00000 
 43692.65567		 305.27265			43387.38302		69.17800		324.00000 
 43692.65567		 614.60288			43078.05279		198.06600		875.00000 
 43692.65567		 305.27265			43387.38302		69.17800		324.00000 
 43692.65567		 614.60288			43078.05279		198.06600		875.00000 
 43692.65567		 305.27265			43387.38302		69.17800		324.00000 
 43692.65567		 614.60288			43078.05279		198.06600		875.00000 
 43692.65567		 305.27265			43387.38302		69.17800		324.00000 
 43692.65567		 614.60288			43078.05279		198.06600		875.00000 
 43692.65567		 305.27265			43387.38302		69.17800		324.00000 
 43692.65567		 614.60288			43078.05279		198.06600		875.00000 
 43692.65567		 305.27265			43387.38302		69.17800		324.00000 
 43692.65567		 614.60288			43078.05279		198.06600		875.00000 
 43692.65567		 305.27265			43387.38302		69.17800		324.00000 
 43692.65567		 614.60288			43078.05279		198.06600		875.00000 
 43692.65567		 305.27265			43387.38302		69.17800		324.00000 
 43692.65567		 614.60288			43078.05279		198.06600		875.00000 
 43692.65567		 305.27265			43387.38302		69.17800		324.00000 
 43692.65567		 614.60288			43078.05279		208.56000		875.00000 
 43692.65567		 305.27265			43387.38302		69.17800		324.00000 
 43692.65567		 614.60288			43078.05279		208.56000		875.00000 
 43692.65567		 305.27265			43387.38302		69.17800		324.00000 
 43692.65567		 614.60288			43078.05279		208.56000		875.00000 
 43692.65567		 305.27265			43387.38302		69.17800		324.00000 
 43692.65567		 614.60288			43078.05279		208.56000		875.00000 
 43692.65567		 305.27265			43387.38302		69.17800		324.00000 
 43692.65567		 614.60288			43078.05279		208.56000		875.00000 
 43692.65567		 305.27265			43387.38302		69.17800		324.00000 
 43692.65567		 614.60288			43078.05279		208.56000		875.00000 
 43692.65567		 305.27265			43387.38302		69.17800		324.00000 
 43692.65567		 614.60288			43078.05279		208.56000		875.00000 
 43692.65567		 305.27265			43387.38302		69.17800		324.00000 
 43692.65567		 614.60288			43078.05279		208.56000		875.00000 
 43692.65567		 305.27265			43387.38302		69.17800		324.00000 
 43692.65567		 614.60288			43078.05279		208.56000		875.00000 
 43692.65567		 305.27265			43387.38302		69.17800		324.00000 
 43692.65567		 614.60288			43078.05279		208.56000		875.00000 
 43692.65567		 305.27265			43387.38302		69.17800		324.00000 
 43692.65567		 614.60288			43078.05279		208.56000		875.00000 
 43692.65567		 305.27265			43387.38302		69.17800		324.00000 
 43692.65567		 614.60288			43078.05279		208.56000		875.00000 
 43692.65567		 305.27265			43387.38302		69.17800		324.00000 
 43692.65567		 614.60288			43078.05279		208.56000		875.00000 
 43692.65567		 305.27265			43387.38302		69.17800		324.00000 
 43692.65567		 614.60288			43078.05279		208.56000		875.00000 
 43692.65567		 305.27265			43387.38302		69.17800		324.00000 
 43692.65567		 614.60288			43078.05279		208.56000		875.00000 
 43692.65567		 305.27265			43387.38302		69.17800		324.00000 
 43692.65567		 614.60288			43078.05279		208.56000		875.00000 
 43692.65567		 305.27265			43387.38302		69.17800		324.00000 
 43692.65567		 614.60288			43078.05279		208.56000		875.00000 
 43692.65567		 305.27265			43387.38302		69.17800		324.00000 
 43692.65567		 614.60288			43078.05279		208.56000		875.00000 
 43692.65567		 305.27265			43387.38302		69.17800		324.00000 
 43692.65567		 614.60288			43078.05279		208.56000		875.00000 
 43692.65567		 305.27265			43387.38302		69.17800		324.00000 
 43692.65567		 614.60288			43078.05279		208.56000		875.00000 
 43692.65567		 305.27265			43387.38302		69.17800		324.00000 
 43692.65567		 614.60288			43078.05279		208.56000		875.00000 
 43692.65567		 305.27265			43387.38302		69.17800		324.00000 
 43692.65567		 614.60288			43078.05279		208.56000		875.00000 
 43692.65567		 305.27265			43387.38302		69.17800		324.00000 
 43692.65567		 614.60288			43078.05279		208.56000		875.00000 
 43692.65567		 305.27265			43387.38302		69.17800		324.00000 
 43692.65567		 614.60288			43078.05279		208.56000		875.00000 
 43692.65567		 305.27265			43387.38302		69.17800		324.00000 
 43692.65567		 614.60288			43078.05279		208.56000		875.00000 
 43692.65567		 305.27265			43387.38302		69.17800		324.00000 
 43692.65567		 614.60288			43078.05279		208.56000		875.00000 
 43692.65567		 305.27265			43387.38302		69.17800		324.00000 
 43692.65567		 614.60288			43078.05279		208.56000		875.00000 
 43692.65567		 305.27265			43387.38302		69.17800		324.00000 
 43692.65567		 614.60288			43078.05279		208.56000		875.00000 
 43692.65567		 305.27265			43387.38302		69.17800		324.00000 
 43692.65567		 614.60288			43078.05279		208.56000		875.00000 
 43692.65567		 305.27265			43387.38302		69.17800		324.00000 
 43692.65567		 614.60288			43078.05279		208.56000		875.00000 
 43692.65567		 305.27265			43387.38302		69.17800		324.00000 
 43692.65567		 614.60288			43078.05279		208.56000		875.00000 
 43692.65567		 305.27265			43387.38302		69.17800		324.00000 
 43692.65567		 614.60288			43078.05279		208.56000		875.00000 
 43692.65567		 305.27265			43387.38302		69.17800		324.00000 
 43692.65567		 614.60288			43078.05279		208.56000		875.00000 
 43692.65567		 305.27265			43387.38302		69.17800		324.00000 
 43692.65567		 614.60288			43078.05279		208.56000		875.00000 
 43692.65567		 305.27265			43387.38302		69.17800		324.00000 
 43692.65567		 614.60288			43078.05279		208.56000		875.00000 
 43692.65567		 305.27265			43387.38302		69.17800		324.00000 
 43692.65567		 614.60288			43078.05279		208.56000		875.00000 
 43692.65567		 305.27265			43387.38302		69.17800		324.00000 
 43692.65567		 614.60288			43078.05279		208.56000		875.00000 
 43692.65567		 305.27265			43387.38302		69.17800		324.00000 
 43692.65567		 614.60288			43078.05279		208.56000		875.00000 
 43692.65567		 305.27265			43387.38302		69.17800		324.00000 
 43692.65567		 614.60288			43078.05279		208.56000		875.00000 
 43692.65567		 305.27265			43387.38302		69.17800		324.00000 
 43692.65567		 614.60288			43078.05279		208.56000		875.00000 
 43692.65567		 305.27265			43387.38302		69.17800		324.00000 
 43692.65567		 614.60288			43078.05279		208.56000		875.00000 
 43692.65567		 305.27265			43387.38302		69.17800		324.00000 
 43692.65567		 614.60288			43078.05279		208.56000		875.00000 
 43692.65567		 305.27265			43387.38302		69.17800		324.00000 
 43692.65567		 614.60288			43078.05279		208.56000		875.00000 
 43692.65567		 305.27265			43387.38302		69.17800		324.00000 
 43692.65567		 614.60288			43078.05279		208.56000		875.00000 
 43692.65567		 305.27265			43387.38302		69.17800		324.00000 
 43692.65567		 614.60288			43078.05279		208.56000		875.00000 
 43692.65567		 305.27265			43387.38302		69.17800		324.00000 
 43692.65567		 614.60288			43078.05279		208.56000		875.00000 
 43692.65567		 305.27265			43387.38302		69.17800		324.00000 
 43692.65567		 614.60288			43078.05279		208.56000		875.00000 
 43692.65567		 305.27265			43387.38302		69.17800		324.00000 
 43692.65567		 614.60288			43078.05279		208.56000		875.00000 
 43692.65567		 305.27265			43387.38302		69.17800		324.00000 
 43692.65567		 614.60288			43078.05279		208.56000		875.00000 
 43692.65567		 305.27265			43387.38302		69.17800		324.00000 
 43692.65567		 614.60288			43078.05279		208.56000		875.00000 
 43692.65567		 305.27265			43387.38302		69.17800		324.00000 
 43692.65567		 614.60288			43078.05279		208.56000		875.00000 
 43692.65567		 305.27265			43387.38302		69.17800		324.00000 
 43692.65567		 614.60288			43078.05279		208.56000		875.00000 
 43692.65567		 305.27265			43387.38302		69.17800		324.00000 
 43692.65567		 614.60288			43078.05279		208.56000		875.00000 
 43692.65567		 305.27265			43387.38302		69.17800		324.00000 
 43692.65567		 614.60288			43078.05279		208.56000		875.00000 
 43692.65567		 305.27265			43387.38302		69.17800		324.00000 
 43692.65567		 614.60288			43078.05279		208.56000		875.00000 
 43692.65567		 305.27265			43387.38302		69.17800		324.00000 
 43692.65567		 614.60288			43078.05279		208.56000		875.00000 
 43692.65567		 305.27265			43387.38302		69.17800		324.00000 
 43692.65567		 614.60288			43078.05279		208.56000		875.00000 
 43692.65567		 305.27265			43387.38302		69.17800		324.00000 
 43692.65567		 614.60288			43078.05279		208.56000		875.00000 
 43692.65567		 305.27265			43387.38302		69.17800		324.00000 
 43692.65567		 614.60288			43078.05279		208.56000		875.00000 
 43692.65567		 305.27265			43387.38302		69.17800		324.00000 
 43692.65567		 614.60288			43078.05279		208.56000		875.00000 
 43692.65567		 305.27265			43387.38302		69.17800		324.00000 
 43692.65567		 614.60288			43078.05279		208.56000		875.00000 
 43692.65567		 305.27265			43387.38302		69.17800		324.00000 
 43692.65567		 614.60288			43078.05279		208.56000		875.00000 
 43692.65567		 305.27265			43387.38302		69.17800		324.00000 
 43692.65567		 614.60288			43078.05279		208.56000		875.00000 
 43692.65567		 305.27265			43387.38302		69.17800		324.00000 
 43692.65567		 614.60288			43078.05279		208.56000		875.00000 
 43692.65567		 305.27265			43387.38302		69.17800		324.00000 
 43692.65567		 614.60288			43078.05279		208.56000		875.00000 
 43692.65567		 305.27265			43387.38302		69.17800		324.00000 
 43692.65567		 614.60288			43078.05279		208.56000		875.00000 
 43692.65567		 305.27265			43387.38302		69.17800		324.00000 
 43692.65567		 614.60288			43078.05279		208.56000		875.00000 
 43692.65567		 305.27265			43387.38302		69.17800		324.00000 
 43692.65567		 614.60288			43078.05279		208.56000		875.00000 
 43692.65567		 305.27265			43387.38302		69.17800		324.00000 
 43692.65567		 614.60288			43078.05279		211.83000		875.00000 
 43692.65567		 305.27265			43387.38302		69.17800		324.00000 
 43692.65567		 614.60288			43078.05279		211.83000		875.00000 
 43692.65567		 305.27265			43387.38302		69.17800		324.00000 
 43692.65567		 614.60288			43078.05279		211.83000		875.00000 
 43692.65567		 305.27265			43387.38302		69.17800		324.00000 
 43692.65567		 614.60288			43078.05279		211.83000		875.00000 
 43692.65567		 305.27265			43387.38302		69.17800		324.00000 
 43692.65567		 614.60288			43078.05279		211.83000		875.00000 
 43692.65567		 305.27265			43387.38302		69.17800		324.00000 
 43692.65567		 614.60288			43078.05279		211.83000		875.00000 
 43692.65567		 305.27265			43387.38302		69.17800		324.00000 
 43692.65567		 614.60288			43078.05279		211.83000		875.00000 
 43692.65567		 305.27265			43387.38302		69.17800		324.00000 
 43692.65567		 614.60288			43078.05279		211.83000		875.00000 
 43692.65567		 305.27265			43387.38302		69.17800		324.00000 
 43692.65567		 614.60288			43078.05279		211.83000		875.00000 
 43692.65567		 305.27265			43387.38302		69.17800		324.00000 
 43692.65567		 614.60288			43078.05279		211.83000		875.00000 
 43692.65567		 305.27265			43387.38302		69.17800		324.00000 
 43692.65567		 614.60288			43078.05279		211.83000		875.00000 
 43692.65567		 305.27265			43387.38302		69.17800		324.00000 
 43692.65567		 614.60288			43078.05279		211.83000		875.00000 
 43692.65567		 305.27265			43387.38302		69.17800		324.00000 
 43692.65567		 614.60288			43078.05279		211.83000		875.00000 
 43692.65567		 305.27265			43387.38302		69.17800		324.00000 
 43692.65567		 614.60288			43078.05279		211.83000		875.00000 
 43692.65567		 305.27265			43387.38302		69.17800		324.00000 
 43692.65567		 614.60288			43078.05279		211.83000		875.00000 
 43692.65567		 305.27265			43387.38302		69.17800		324.00000 
 43692.65567		 614.60288			43078.05279		211.83000		875.00000 
 43692.65567		 305.27265			43387.38302		69.17800		324.00000 
 43692.65567		 614.60288			43078.05279		211.83000		875.00000 
 43692.65567		 305.27265			43387.38302		69.17800		324.00000 
 43692.65567		 614.60288			43078.05279		211.83000		875.00000 
 43692.65567		 305.27265			43387.38302		69.17800		324.00000 
 43692.65567		 614.60288			43078.05279		211.83000		875.00000 
 43692.65567		 305.27265			43387.38302		69.17800		324.00000 
 43692.65567		 614.60288			43078.05279		211.83000		875.00000 
 43692.65567		 305.27265			43387.38302		69.17800		324.00000 
 43692.65567		 614.60288			43078.05279		211.83000		875.00000 
 43692.65567		 305.27265			43387.38302		69.17800		324.00000 
 43692.65567		 614.60288			43078.05279		211.83000		875.00000 
 43692.65567		 305.27265			43387.38302		69.17800		324.00000 
 43692.65567		 614.60288			43078.05279		211.83000		875.00000 
 43692.65567		 305.27265			43387.38302		69.17800		324.00000 
 43692.65567		 614.60288			43078.05279		211.83000		875.00000 
 43692.65567		 305.27265			43387.38302		69.17800		324.00000 
 43692.65567		 614.60288			43078.05279		211.83000		875.00000 
 43692.65567		 305.27265			43387.38302		69.17800		324.00000 
 43692.65567		 614.60288			43078.05279		211.83000		875.00000 
 43692.65567		 305.27265			43387.38302		69.17800		324.00000 
 43692.65567		 614.60288			43078.05279		211.83000		875.00000 
 43692.65567		 305.27265			43387.38302		69.17800		324.00000 
 43692.65567		 614.60288			43078.05279		211.83000		875.00000 
 43692.65567		 305.27265			43387.38302		69.17800		324.00000 
 43692.65567		 614.60288			43078.05279		211.83000		875.00000 
 43692.65567		 305.27265			43387.38302		69.17800		324.00000 
 43692.65567		 614.60288			43078.05279		211.83000		875.00000 
 43692.65567		 305.27265			43387.38302		69.17800		324.00000 
 43692.65567		 614.60288			43078.05279		211.83000		875.00000 
 43692.65567		 305.27265			43387.38302		69.17800		324.00000 
 43692.65567		 614.60288			43078.05279		211.83000		875.00000 
 43692.65567		 305.27265			43387.38302		69.17800		324.00000 
 43692.65567		 614.60288			43078.05279		211.83000		875.00000 
 43692.65567		 305.27265			43387.38302		69.17800		324.00000 
 43692.65567		 614.60288			43078.05279		211.83000		875.00000 
 43692.65567		 305.27265			43387.38302		69.17800		324.00000 
 43692.65567		 614.60288			43078.05279		211.83000		875.00000 
 43692.65567		 305.27265			43387.38302		69.17800		324.00000 
 43692.65567		 614.60288			43078.05279		211.83000		875.00000 
 43692.65567		 305.27265			43387.38302		69.17800		324.00000 
 43692.65567		 614.60288			43078.05279		211.83000		875.00000 
 43692.65567		 305.27265			43387.38302		69.17800		324.00000 
 43692.65567		 614.60288			43078.05279		211.83000		875.00000 
 43692.65567		 305.27265			43387.38302		69.17800		324.00000 
 43692.65567		 614.60288			43078.05279		211.83000		875.00000 
 43692.65567		 305.27265			43387.38302		69.17800		324.00000 
 43692.65567		 614.60288			43078.05279		211.83000		875.00000 
 43692.65567		 305.27265			43387.38302		69.17800		324.00000 
 43692.65567		 614.60288			43078.05279		211.83000		875.00000 
 43692.65567		 305.27265			43387.38302		69.17800		324.00000 
 43692.65567		 614.60288			43078.05279		211.83000		875.00000 
 43692.65567		 305.27265			43387.38302		69.17800		324.00000 
 43692.65567		 614.60288			43078.05279		211.83000		875.00000 
 43692.65567		 305.27265			43387.38302		69.17800		324.00000 
 43692.65567		 614.60288			43078.05279		211.83000		875.00000 
 43692.65567		 305.27265			43387.38302		69.17800		324.00000 
 43692.65567		 614.60288			43078.05279		211.83000		875.00000 
 43692.65567		 305.27265			43387.38302		69.17800		324.00000 
 43692.65567		 614.60288			43078.05279		211.83000		875.00000 
 43692.65567		 305.27265			43387.38302		69.17800		324.00000 
 43692.65567		 614.60288			43078.05279		211.83000		875.00000 
 43692.65567		 305.27265			43387.38302		69.17800		324.00000 
 43692.65567		 614.60288			43078.05279		211.83000		875.00000 
 43692.65567		 305.27265			43387.38302		69.17800		324.00000 
 43692.65567		 614.60288			43078.05279		211.83000		875.00000 
 43692.65567		 305.27265			43387.38302		69.17800		324.00000 
 43692.65567		 614.60288			43078.05279		211.83000		875.00000 
 43692.65567		 305.27265			43387.38302		69.17800		324.00000 
 43692.65567		 614.60288			43078.05279		211.83000		875.00000 
 43692.65567		 305.27265			43387.38302		69.17800		324.00000 
 43692.65567		 614.60288			43078.05279		211.83000		875.00000 
 43692.65567		 305.27265			43387.38302		69.17800		324.00000 
 43692.65567		 614.60288			43078.05279		211.83000		875.00000 
 43692.65567		 305.27265			43387.38302		69.17800		324.00000 
 43692.65567		 614.60288			43078.05279		211.83000		875.00000 
 43692.65567		 305.27265			43387.38302		69.17800		324.00000 
 43692.65567		 614.60288			43078.05279		211.83000		875.00000 
 43692.65567		 305.27265			43387.38302		69.17800		324.00000 
 43692.65567		 614.60288			43078.05279		211.83000		875.00000 
 43692.65567		 305.27265			43387.38302		69.17800		324.00000 
 43692.65567		 614.60288			43078.05279		211.83000		875.00000 
 43692.65567		 305.27265			43387.38302		69.17800		324.00000 
 43692.65567		 614.60288			43078.05279		211.83000		875.00000 
 43692.65567		 305.27265			43387.38302		69.17800		324.00000 
 43692.65567		 614.60288			43078.05279		211.83000		875.00000 
 43692.65567		 305.27265			43387.38302		69.17800		324.00000 
 43692.65567		 614.60288			43078.05279		211.83000		875.00000 
 43692.65567		 305.27265			43387.38302		69.17800		324.00000 
 43692.65567		 614.60288			43078.05279		211.83000		875.00000 
 43692.65567		 305.27265			43387.38302		69.17800		324.00000 
 43692.65567		 614.60288			43078.05279		211.83000		875.00000 
 43692.65567		 305.27265			43387.38302		69.17800		324.00000 
 43692.65567		 614.60288			43078.05279		211.83000		875.00000 
 43692.65567		 305.27265			43387.38302		69.17800		324.00000 
 43692.65567		 614.60288			43078.05279		211.83000		875.00000 
 43692.65567		 305.27265			43387.38302		69.17800		324.00000 
 43692.65567		 614.60288			43078.05279		213.14400		875.00000 
 43692.65567		 305.27265			43387.38302		69.17800		324.00000 
 43692.65567		 614.60288			43078.05279		213.14400		875.00000 
 43692.65567		 305.27265			43387.38302		69.17800		324.00000 
 43692.65567		 588.82536			43103.83031		213.14400		875.00000 
 43692.65567		 305.27265			43387.38302		69.17800		324.00000 
 43692.65567		 537.27032			43155.38535		213.14400		875.00000 
 43692.65567		 305.27265			43387.38302		69.17800		324.00000 
 43692.65567		 537.27032			43155.38535		213.14400		875.00000 
 43692.65567		 305.27265			43387.38302		69.17800		324.00000 
 43692.65567		 537.27032			43155.38535		213.14400		875.00000 
 43692.65567		 305.27265			43387.38302		69.17800		324.00000 
 43692.65567		 537.27032			43155.38535		213.14400		875.00000 
 43692.65567		 305.27265			43387.38302		69.17800		324.00000 
 43692.65567		 537.27032			43155.38535		213.14400		875.00000 
 43692.65567		 305.27265			43387.38302		69.17800		324.00000 
 43692.65567		 537.27032			43155.38535		213.14400		875.00000 
 43692.65567		 305.27265			43387.38302		69.17800		324.00000 
 43692.65567		 537.27032			43155.38535		213.14400		875.00000 
 43692.65567		 305.27265			43387.38302		69.17800		324.00000 
 43692.65567		 537.27032			43155.38535		213.14400		875.00000 
 43692.65567		 305.27265			43387.38302		69.17800		324.00000 
 43692.65567		 537.27032			43155.38535		213.14400		875.00000 
 43692.65567		 305.27265			43387.38302		69.17800		324.00000 
 43692.65567		 537.27032			43155.38535		213.14400		875.00000 
 43692.65567		 305.27265			43387.38302		69.17800		324.00000 
 43692.65567		 537.27032			43155.38535		213.14400		875.00000 
 43692.65567		 305.27265			43387.38302		69.17800		324.00000 
 43692.65567		 537.27032			43155.38535		213.14400		875.00000 
 43692.65567		 305.27265			43387.38302		69.17800		324.00000 
 43692.65567		 537.27032			43155.38535		213.14400		875.00000 
 43692.65567		 305.27265			43387.38302		69.17800		324.00000 
 43692.65567		 537.27032			43155.38535		213.14400		875.00000 
 43692.65567		 305.27265			43387.38302		69.17800		324.00000 
 43692.65567		 537.27032			43155.38535		213.14400		875.00000 
 43692.65567		 305.27265			43387.38302		69.17800		324.00000 
 43692.65567		 537.27032			43155.38535		213.14400		875.00000 
 43692.65567		 305.27265			43387.38302		69.17800		324.00000 
 43692.65567		 537.27032			43155.38535		213.14400		875.00000 
 43692.65567		 305.27265			43387.38302		69.17800		324.00000 
 43692.65567		 537.27032			43155.38535		213.14400		875.00000 
 43692.65567		 305.27265			43387.38302		69.17800		324.00000 
 43692.65567		 537.27032			43155.38535		213.14400		875.00000 
 43692.65567		 305.27265			43387.38302		69.17800		324.00000 
 43692.65567		 537.27032			43155.38535		213.14400		875.00000 
 43692.65567		 305.27265			43387.38302		69.17800		324.00000 
 43692.65567		 529.63254			43163.02313		213.14400		875.00000 
 43692.65567		 305.27265			43387.38302		69.17800		324.00000 
 43692.65567		 525.81365			43166.84203		213.14400		875.00000 
 43692.65567		 305.27265			43387.38302		69.17800		324.00000 
 43692.65567		 525.81365			43166.84203		213.14400		875.00000 
 43692.65567		 261.35540			43431.30027		69.17800		324.00000 
