Memory Total (MiB) 	 Memory Used (MiB) 	    Memory Free (MiB) 	 Power Drawed (W) 	 Clocks (Mhz) 	 
 43692.65567		 261.35540			43431.30027		170.11800		875.00000 
 43692.65567		 261.35540			43431.30027		70.74000		324.00000 
 43692.65567		 261.35540			43431.30027		170.11800		875.00000 
 43692.65567		 261.35540			43431.30027		70.74000		324.00000 
 43692.65567		 261.35540			43431.30027		170.11800		875.00000 
 43692.65567		 261.35540			43431.30027		70.74000		324.00000 
 43692.65567		 261.35540			43431.30027		170.11800		875.00000 
 43692.65567		 261.35540			43431.30027		70.74000		324.00000 
 43692.65567		 261.35540			43431.30027		170.11800		875.00000 
 43692.65567		 261.35540			43431.30027		70.74000		324.00000 
 43692.65567		 261.35540			43431.30027		170.11800		875.00000 
 43692.65567		 261.35540			43431.30027		70.74000		324.00000 
 43692.65567		 261.35540			43431.30027		170.11800		875.00000 
 43692.65567		 261.35540			43431.30027		70.74000		324.00000 
 43692.65567		 261.35540			43431.30027		170.11800		875.00000 
 43692.65567		 261.35540			43431.30027		70.74000		324.00000 
 43692.65567		 261.35540			43431.30027		170.11800		875.00000 
 43692.65567		 261.35540			43431.30027		70.74000		324.00000 
 43692.65567		 261.35540			43431.30027		170.11800		875.00000 
 43692.65567		 261.35540			43431.30027		70.74000		324.00000 
 43692.65567		 261.35540			43431.30027		170.11800		875.00000 
 43692.65567		 261.35540			43431.30027		70.74000		324.00000 
 43692.65567		 261.35540			43431.30027		146.30400		875.00000 
 43692.65567		 261.35540			43431.30027		70.74000		324.00000 
 43692.65567		 261.35540			43431.30027		146.30400		875.00000 
 43692.65567		 261.35540			43431.30027		70.74000		324.00000 
 43692.65567		 261.35540			43431.30027		146.30400		875.00000 
 43692.65567		 261.35540			43431.30027		70.74000		324.00000 
 43692.65567		 261.35540			43431.30027		146.30400		875.00000 
 43692.65567		 261.35540			43431.30027		70.74000		324.00000 
 43692.65567		 261.35540			43431.30027		146.30400		875.00000 
 43692.65567		 261.35540			43431.30027		70.74000		324.00000 
 43692.65567		 261.35540			43431.30027		146.30400		875.00000 
 43692.65567		 261.35540			43431.30027		70.74000		324.00000 
 43692.65567		 261.35540			43431.30027		146.30400		875.00000 
 43692.65567		 261.35540			43431.30027		70.74000		324.00000 
 43692.65567		 265.17429			43427.48138		146.30400		875.00000 
 43692.65567		 261.35540			43431.30027		70.74000		324.00000 
 43692.65567		 265.17429			43427.48138		146.30400		875.00000 
 43692.65567		 261.35540			43431.30027		70.74000		324.00000 
 43692.65567		 272.81207			43419.84360		146.30400		875.00000 
 43692.65567		 261.35540			43431.30027		70.74000		324.00000 
 43692.65567		 272.81207			43419.84360		146.30400		875.00000 
 43692.65567		 261.35540			43431.30027		70.74000		324.00000 
 43692.65567		 272.81207			43419.84360		146.30400		875.00000 
 43692.65567		 265.17429			43427.48138		70.74000		324.00000 
 43692.65567		 272.81207			43419.84360		146.30400		875.00000 
 43692.65567		 265.17429			43427.48138		70.74000		324.00000 
 43692.65567		 272.81207			43419.84360		146.30400		875.00000 
 43692.65567		 272.81207			43419.84360		70.74000		324.00000 
 43692.65567		 272.81207			43419.84360		146.30400		875.00000 
 43692.65567		 272.81207			43419.84360		70.74000		324.00000 
 43692.65567		 272.81207			43419.84360		146.30400		875.00000 
 43692.65567		 272.81207			43419.84360		70.74000		324.00000 
 43692.65567		 272.81207			43419.84360		146.30400		875.00000 
 43692.65567		 272.81207			43419.84360		70.74000		324.00000 
 43692.65567		 305.27265			43387.38302		146.30400		875.00000 
 43692.65567		 305.27265			43387.38302		70.74000		324.00000 
 43692.65567		 305.27265			43387.38302		146.30400		875.00000 
 43692.65567		 305.27265			43387.38302		70.74000		324.00000 
 43692.65567		 305.27265			43387.38302		146.30400		875.00000 
 43692.65567		 305.27265			43387.38302		70.74000		324.00000 
 43692.65567		 305.27265			43387.38302		146.30400		875.00000 
 43692.65567		 305.27265			43387.38302		70.74000		324.00000 
 43692.65567		 305.27265			43387.38302		146.30400		875.00000 
 43692.65567		 305.27265			43387.38302		70.74000		324.00000 
 43692.65567		 310.04627			43382.60941		146.30400		875.00000 
 43692.65567		 305.27265			43387.38302		70.74000		324.00000 
 43692.65567		 311.00099			43381.65468		146.30400		875.00000 
 43692.65567		 305.27265			43387.38302		70.74000		324.00000 
 43692.65567		 311.00099			43381.65468		146.30400		875.00000 
 43692.65567		 305.27265			43387.38302		70.74000		324.00000 
 43692.65567		 311.00099			43381.65468		146.30400		875.00000 
 43692.65567		 305.27265			43387.38302		70.74000		324.00000 
 43692.65567		 311.00099			43381.65468		146.30400		875.00000 
 43692.65567		 305.27265			43387.38302		70.74000		324.00000 
 43692.65567		 311.00099			43381.65468		146.30400		875.00000 
 43692.65567		 305.27265			43387.38302		70.74000		324.00000 
 43692.65567		 311.00099			43381.65468		146.30400		875.00000 
 43692.65567		 305.27265			43387.38302		70.74000		324.00000 
 43692.65567		 311.00099			43381.65468		146.30400		875.00000 
 43692.65567		 305.27265			43387.38302		70.74000		324.00000 
 43692.65567		 311.00099			43381.65468		146.30400		875.00000 
 43692.65567		 305.27265			43387.38302		70.74000		324.00000 
 43692.65567		 311.00099			43381.65468		137.12600		875.00000 
 43692.65567		 305.27265			43387.38302		70.74000		324.00000 
 43692.65567		 311.00099			43381.65468		137.12600		875.00000 
 43692.65567		 305.27265			43387.38302		70.74000		324.00000 
 43692.65567		 311.00099			43381.65468		137.12600		875.00000 
 43692.65567		 305.27265			43387.38302		70.74000		324.00000 
 43692.65567		 311.00099			43381.65468		137.12600		875.00000 
 43692.65567		 305.27265			43387.38302		70.74000		324.00000 
 43692.65567		 311.00099			43381.65468		137.12600		875.00000 
 43692.65567		 305.27265			43387.38302		70.74000		324.00000 
 43692.65567		 311.00099			43381.65468		137.12600		875.00000 
 43692.65567		 305.27265			43387.38302		70.74000		324.00000 
 43692.65567		 311.00099			43381.65468		137.12600		875.00000 
 43692.65567		 305.27265			43387.38302		70.74000		324.00000 
 43692.65567		 311.00099			43381.65468		137.12600		875.00000 
 43692.65567		 305.27265			43387.38302		70.74000		324.00000 
 43692.65567		 311.00099			43381.65468		137.12600		875.00000 
 43692.65567		 305.27265			43387.38302		70.74000		324.00000 
 43692.65567		 311.00099			43381.65468		137.12600		875.00000 
 43692.65567		 305.27265			43387.38302		70.74000		324.00000 
 43692.65567		 311.00099			43381.65468		137.12600		875.00000 
 43692.65567		 305.27265			43387.38302		70.74000		324.00000 
 43692.65567		 311.00099			43381.65468		137.12600		875.00000 
 43692.65567		 305.27265			43387.38302		70.74000		324.00000 
 43692.65567		 311.00099			43381.65468		137.12600		875.00000 
 43692.65567		 305.27265			43387.38302		70.74000		324.00000 
 43692.65567		 311.00099			43381.65468		137.12600		875.00000 
 43692.65567		 305.27265			43387.38302		70.74000		324.00000 
 43692.65567		 311.00099			43381.65468		137.12600		875.00000 
 43692.65567		 305.27265			43387.38302		70.74000		324.00000 
 43692.65567		 311.00099			43381.65468		137.12600		875.00000 
 43692.65567		 305.27265			43387.38302		70.74000		324.00000 
 43692.65567		 311.00099			43381.65468		137.12600		875.00000 
 43692.65567		 305.27265			43387.38302		70.74000		324.00000 
 43692.65567		 311.00099			43381.65468		137.12600		875.00000 
 43692.65567		 305.27265			43387.38302		70.74000		324.00000 
 43692.65567		 311.00099			43381.65468		137.12600		875.00000 
 43692.65567		 305.27265			43387.38302		70.74000		324.00000 
 43692.65567		 311.00099			43381.65468		137.12600		875.00000 
 43692.65567		 305.27265			43387.38302		70.74000		324.00000 
 43692.65567		 311.00099			43381.65468		137.12600		875.00000 
 43692.65567		 305.27265			43387.38302		70.74000		324.00000 
 43692.65567		 311.00099			43381.65468		137.12600		875.00000 
 43692.65567		 305.27265			43387.38302		70.74000		324.00000 
 43692.65567		 311.00099			43381.65468		137.12600		875.00000 
 43692.65567		 305.27265			43387.38302		70.74000		324.00000 
 43692.65567		 311.00099			43381.65468		137.12600		875.00000 
 43692.65567		 305.27265			43387.38302		70.74000		324.00000 
 43692.65567		 311.00099			43381.65468		137.12600		875.00000 
 43692.65567		 305.27265			43387.38302		70.74000		324.00000 
 43692.65567		 311.00099			43381.65468		137.12600		875.00000 
 43692.65567		 305.27265			43387.38302		70.74000		324.00000 
 43692.65567		 311.00099			43381.65468		137.12600		875.00000 
 43692.65567		 305.27265			43387.38302		70.74000		324.00000 
 43692.65567		 311.00099			43381.65468		137.12600		875.00000 
 43692.65567		 305.27265			43387.38302		70.74000		324.00000 
 43692.65567		 311.00099			43381.65468		137.12600		875.00000 
 43692.65567		 305.27265			43387.38302		70.74000		324.00000 
 43692.65567		 311.00099			43381.65468		137.12600		875.00000 
 43692.65567		 305.27265			43387.38302		70.74000		324.00000 
 43692.65567		 311.00099			43381.65468		137.12600		875.00000 
 43692.65567		 305.27265			43387.38302		70.74000		324.00000 
 43692.65567		 311.00099			43381.65468		133.48400		875.00000 
 43692.65567		 305.27265			43387.38302		70.74000		324.00000 
 43692.65567		 311.00099			43381.65468		133.48400		875.00000 
 43692.65567		 305.27265			43387.38302		70.74000		324.00000 
 43692.65567		 311.00099			43381.65468		133.48400		875.00000 
 43692.65567		 305.27265			43387.38302		70.74000		324.00000 
 43692.65567		 311.00099			43381.65468		133.48400		875.00000 
 43692.65567		 305.27265			43387.38302		70.74000		324.00000 
 43692.65567		 311.00099			43381.65468		133.48400		875.00000 
 43692.65567		 305.27265			43387.38302		70.74000		324.00000 
 43692.65567		 311.00099			43381.65468		133.48400		875.00000 
 43692.65567		 305.27265			43387.38302		70.74000		324.00000 
 43692.65567		 311.00099			43381.65468		133.48400		875.00000 
 43692.65567		 305.27265			43387.38302		70.74000		324.00000 
 43692.65567		 311.00099			43381.65468		133.48400		875.00000 
 43692.65567		 305.27265			43387.38302		70.74000		324.00000 
 43692.65567		 311.00099			43381.65468		133.48400		875.00000 
 43692.65567		 305.27265			43387.38302		70.74000		324.00000 
 43692.65567		 311.00099			43381.65468		133.48400		875.00000 
 43692.65567		 305.27265			43387.38302		70.74000		324.00000 
 43692.65567		 311.00099			43381.65468		133.48400		875.00000 
 43692.65567		 305.27265			43387.38302		70.74000		324.00000 
 43692.65567		 311.00099			43381.65468		133.48400		875.00000 
 43692.65567		 305.27265			43387.38302		70.74000		324.00000 
 43692.65567		 314.81988			43377.83579		133.48400		875.00000 
 43692.65567		 305.27265			43387.38302		70.74000		324.00000 
 43692.65567		 314.81988			43377.83579		133.48400		875.00000 
 43692.65567		 305.27265			43387.38302		70.74000		324.00000 
 43692.65567		 314.81988			43377.83579		133.48400		875.00000 
 43692.65567		 305.27265			43387.38302		70.74000		324.00000 
 43692.65567		 318.63877			43374.01690		133.48400		875.00000 
 43692.65567		 305.27265			43387.38302		70.74000		324.00000 
 43692.65567		 322.45767			43370.19801		133.48400		875.00000 
 43692.65567		 305.27265			43387.38302		70.74000		324.00000 
 43692.65567		 326.27656			43366.37912		133.48400		875.00000 
 43692.65567		 305.27265			43387.38302		70.74000		324.00000 
 43692.65567		 326.27656			43366.37912		133.48400		875.00000 
 43692.65567		 305.27265			43387.38302		70.74000		324.00000 
 43692.65567		 326.27656			43366.37912		133.48400		875.00000 
 43692.65567		 305.27265			43387.38302		70.74000		324.00000 
 43692.65567		 537.27032			43155.38535		133.48400		875.00000 
 43692.65567		 305.27265			43387.38302		70.74000		324.00000 
 43692.65567		 676.18251			43016.47317		133.48400		875.00000 
 43692.65567		 305.27265			43387.38302		70.74000		324.00000 
 43692.65567		 954.00688			42738.64880		133.48400		875.00000 
 43692.65567		 305.27265			43387.38302		70.74000		324.00000 
 43692.65567		 954.00688			42738.64880		133.48400		875.00000 
 43692.65567		 305.27265			43387.38302		70.74000		324.00000 
 43692.65567		 954.00688			42738.64880		133.48400		875.00000 
 43692.65567		 305.27265			43387.38302		70.74000		324.00000 
 43692.65567		 954.00688			42738.64880		133.48400		875.00000 
 43692.65567		 305.27265			43387.38302		70.74000		324.00000 
 43692.65567		 954.00688			42738.64880		133.48400		875.00000 
 43692.65567		 305.27265			43387.38302		70.74000		324.00000 
 43692.65567		 954.00688			42738.64880		133.48400		875.00000 
 43692.65567		 305.27265			43387.38302		70.74000		324.00000 
 43692.65567		 954.00688			42738.64880		133.48400		875.00000 
 43692.65567		 305.27265			43387.38302		70.74000		324.00000 
 43692.65567		 954.00688			42738.64880		133.48400		875.00000 
 43692.65567		 305.27265			43387.38302		70.74000		324.00000 
 43692.65567		 954.00688			42738.64880		133.48400		875.00000 
 43692.65567		 305.27265			43387.38302		70.74000		324.00000 
 43692.65567		 954.00688			42738.64880		133.48400		875.00000 
 43692.65567		 305.27265			43387.38302		70.74000		324.00000 
 43692.65567		 954.00688			42738.64880		133.48400		875.00000 
 43692.65567		 305.27265			43387.38302		70.74000		324.00000 
 43692.65567		 954.00688			42738.64880		133.48400		875.00000 
 43692.65567		 305.27265			43387.38302		70.74000		324.00000 
 43692.65567		 954.00688			42738.64880		133.48400		875.00000 
 43692.65567		 305.27265			43387.38302		70.74000		324.00000 
 43692.65567		 954.00688			42738.64880		133.48400		875.00000 
 43692.65567		 305.27265			43387.38302		70.74000		324.00000 
 43692.65567		 954.00688			42738.64880		133.48400		875.00000 
 43692.65567		 305.27265			43387.38302		70.74000		324.00000 
 43692.65567		 954.00688			42738.64880		133.48400		875.00000 
 43692.65567		 305.27265			43387.38302		70.74000		324.00000 
 43692.65567		 954.00688			42738.64880		133.48400		875.00000 
 43692.65567		 305.27265			43387.38302		70.74000		324.00000 
 43692.65567		 954.00688			42738.64880		133.48400		875.00000 
 43692.65567		 305.27265			43387.38302		70.74000		324.00000 
 43692.65567		 954.00688			42738.64880		133.48400		875.00000 
 43692.65567		 305.27265			43387.38302		70.74000		324.00000 
 43692.65567		 954.00688			42738.64880		133.48400		875.00000 
 43692.65567		 305.27265			43387.38302		70.74000		324.00000 
 43692.65567		 954.00688			42738.64880		133.48400		875.00000 
 43692.65567		 305.27265			43387.38302		70.74000		324.00000 
 43692.65567		 954.00688			42738.64880		133.48400		875.00000 
 43692.65567		 305.27265			43387.38302		70.74000		324.00000 
 43692.65567		 954.00688			42738.64880		133.48400		875.00000 
 43692.65567		 305.27265			43387.38302		70.74000		324.00000 
 43692.65567		 954.00688			42738.64880		133.48400		875.00000 
 43692.65567		 305.27265			43387.38302		70.74000		324.00000 
 43692.65567		 954.00688			42738.64880		133.48400		875.00000 
 43692.65567		 305.27265			43387.38302		70.74000		324.00000 
 43692.65567		 954.00688			42738.64880		163.51200		875.00000 
 43692.65567		 305.27265			43387.38302		70.74000		324.00000 
 43692.65567		 954.00688			42738.64880		163.51200		875.00000 
 43692.65567		 305.27265			43387.38302		70.74000		324.00000 
 43692.65567		 954.00688			42738.64880		163.51200		875.00000 
 43692.65567		 305.27265			43387.38302		70.74000		324.00000 
 43692.65567		 954.00688			42738.64880		163.51200		875.00000 
 43692.65567		 305.27265			43387.38302		70.74000		324.00000 
 43692.65567		 954.00688			42738.64880		163.51200		875.00000 
 43692.65567		 305.27265			43387.38302		70.74000		324.00000 
 43692.65567		 954.00688			42738.64880		163.51200		875.00000 
 43692.65567		 305.27265			43387.38302		70.74000		324.00000 
 43692.65567		 954.00688			42738.64880		163.51200		875.00000 
 43692.65567		 305.27265			43387.38302		70.74000		324.00000 
 43692.65567		 954.00688			42738.64880		163.51200		875.00000 
 43692.65567		 305.27265			43387.38302		70.74000		324.00000 
 43692.65567		 954.00688			42738.64880		163.51200		875.00000 
 43692.65567		 305.27265			43387.38302		70.74000		324.00000 
 43692.65567		 954.00688			42738.64880		163.51200		875.00000 
 43692.65567		 305.27265			43387.38302		70.74000		324.00000 
 43692.65567		 954.00688			42738.64880		163.51200		875.00000 
 43692.65567		 305.27265			43387.38302		70.74000		324.00000 
 43692.65567		 954.00688			42738.64880		163.51200		875.00000 
 43692.65567		 305.27265			43387.38302		70.74000		324.00000 
 43692.65567		 954.00688			42738.64880		163.51200		875.00000 
 43692.65567		 305.27265			43387.38302		70.74000		324.00000 
 43692.65567		 954.00688			42738.64880		163.51200		875.00000 
 43692.65567		 305.27265			43387.38302		70.74000		324.00000 
 43692.65567		 954.00688			42738.64880		163.51200		875.00000 
 43692.65567		 305.27265			43387.38302		70.74000		324.00000 
 43692.65567		 954.00688			42738.64880		163.51200		875.00000 
 43692.65567		 305.27265			43387.38302		70.74000		324.00000 
 43692.65567		 954.00688			42738.64880		163.51200		875.00000 
 43692.65567		 305.27265			43387.38302		70.74000		324.00000 
 43692.65567		 954.00688			42738.64880		163.51200		875.00000 
 43692.65567		 305.27265			43387.38302		70.74000		324.00000 
 43692.65567		 954.00688			42738.64880		163.51200		875.00000 
 43692.65567		 305.27265			43387.38302		70.74000		324.00000 
 43692.65567		 954.00688			42738.64880		163.51200		875.00000 
 43692.65567		 305.27265			43387.38302		70.74000		324.00000 
 43692.65567		 954.00688			42738.64880		163.51200		875.00000 
 43692.65567		 305.27265			43387.38302		70.74000		324.00000 
 43692.65567		 954.00688			42738.64880		163.51200		875.00000 
 43692.65567		 305.27265			43387.38302		70.74000		324.00000 
 43692.65567		 954.00688			42738.64880		163.51200		875.00000 
 43692.65567		 305.27265			43387.38302		70.74000		324.00000 
 43692.65567		 954.00688			42738.64880		163.51200		875.00000 
 43692.65567		 305.27265			43387.38302		70.74000		324.00000 
 43692.65567		 954.00688			42738.64880		163.51200		875.00000 
 43692.65567		 305.27265			43387.38302		70.74000		324.00000 
 43692.65567		 954.00688			42738.64880		163.51200		875.00000 
 43692.65567		 305.27265			43387.38302		70.74000		324.00000 
 43692.65567		 954.00688			42738.64880		163.51200		875.00000 
 43692.65567		 305.27265			43387.38302		70.74000		324.00000 
 43692.65567		 954.00688			42738.64880		163.51200		875.00000 
 43692.65567		 305.27265			43387.38302		70.74000		324.00000 
 43692.65567		 954.00688			42738.64880		163.51200		875.00000 
 43692.65567		 305.27265			43387.38302		70.74000		324.00000 
 43692.65567		 954.00688			42738.64880		163.51200		875.00000 
 43692.65567		 305.27265			43387.38302		70.74000		324.00000 
 43692.65567		 954.00688			42738.64880		163.51200		875.00000 
 43692.65567		 305.27265			43387.38302		70.74000		324.00000 
 43692.65567		 954.00688			42738.64880		163.51200		875.00000 
 43692.65567		 305.27265			43387.38302		70.74000		324.00000 
 43692.65567		 954.00688			42738.64880		163.51200		875.00000 
 43692.65567		 305.27265			43387.38302		70.74000		324.00000 
 43692.65567		 954.00688			42738.64880		163.51200		875.00000 
 43692.65567		 305.27265			43387.38302		70.74000		324.00000 
 43692.65567		 954.00688			42738.64880		163.51200		875.00000 
 43692.65567		 305.27265			43387.38302		70.74000		324.00000 
 43692.65567		 954.00688			42738.64880		163.51200		875.00000 
 43692.65567		 305.27265			43387.38302		70.74000		324.00000 
 43692.65567		 954.00688			42738.64880		163.51200		875.00000 
 43692.65567		 305.27265			43387.38302		70.74000		324.00000 
 43692.65567		 954.00688			42738.64880		163.51200		875.00000 
 43692.65567		 305.27265			43387.38302		70.74000		324.00000 
 43692.65567		 954.00688			42738.64880		163.51200		875.00000 
 43692.65567		 305.27265			43387.38302		70.74000		324.00000 
 43692.65567		 954.00688			42738.64880		163.51200		875.00000 
 43692.65567		 305.27265			43387.38302		70.74000		324.00000 
 43692.65567		 954.00688			42738.64880		163.51200		875.00000 
 43692.65567		 305.27265			43387.38302		70.74000		324.00000 
 43692.65567		 954.00688			42738.64880		163.51200		875.00000 
 43692.65567		 305.27265			43387.38302		70.74000		324.00000 
 43692.65567		 954.00688			42738.64880		163.51200		875.00000 
 43692.65567		 305.27265			43387.38302		70.74000		324.00000 
 43692.65567		 954.00688			42738.64880		163.51200		875.00000 
 43692.65567		 305.27265			43387.38302		70.74000		324.00000 
 43692.65567		 954.00688			42738.64880		163.51200		875.00000 
 43692.65567		 305.27265			43387.38302		70.74000		324.00000 
 43692.65567		 954.00688			42738.64880		163.51200		875.00000 
 43692.65567		 305.27265			43387.38302		70.74000		324.00000 
 43692.65567		 954.00688			42738.64880		163.51200		875.00000 
 43692.65567		 305.27265			43387.38302		70.74000		324.00000 
 43692.65567		 954.00688			42738.64880		163.51200		875.00000 
 43692.65567		 305.27265			43387.38302		70.74000		324.00000 
 43692.65567		 954.00688			42738.64880		163.51200		875.00000 
 43692.65567		 305.27265			43387.38302		70.74000		324.00000 
 43692.65567		 954.00688			42738.64880		163.51200		875.00000 
 43692.65567		 305.27265			43387.38302		70.74000		324.00000 
 43692.65567		 954.00688			42738.64880		163.51200		875.00000 
 43692.65567		 305.27265			43387.38302		70.74000		324.00000 
 43692.65567		 954.00688			42738.64880		163.51200		875.00000 
 43692.65567		 305.27265			43387.38302		70.74000		324.00000 
 43692.65567		 954.00688			42738.64880		163.51200		875.00000 
 43692.65567		 305.27265			43387.38302		70.74000		324.00000 
 43692.65567		 954.00688			42738.64880		163.51200		875.00000 
 43692.65567		 305.27265			43387.38302		70.74000		324.00000 
 43692.65567		 954.00688			42738.64880		163.51200		875.00000 
 43692.65567		 305.27265			43387.38302		70.74000		324.00000 
 43692.65567		 954.00688			42738.64880		163.51200		875.00000 
 43692.65567		 305.27265			43387.38302		70.74000		324.00000 
 43692.65567		 954.00688			42738.64880		163.51200		875.00000 
 43692.65567		 305.27265			43387.38302		70.74000		324.00000 
 43692.65567		 954.00688			42738.64880		163.51200		875.00000 
 43692.65567		 305.27265			43387.38302		70.74000		324.00000 
 43692.65567		 954.00688			42738.64880		163.51200		875.00000 
 43692.65567		 305.27265			43387.38302		70.74000		324.00000 
 43692.65567		 954.00688			42738.64880		163.51200		875.00000 
 43692.65567		 305.27265			43387.38302		70.74000		324.00000 
 43692.65567		 954.00688			42738.64880		163.51200		875.00000 
 43692.65567		 305.27265			43387.38302		70.74000		324.00000 
 43692.65567		 954.00688			42738.64880		163.51200		875.00000 
 43692.65567		 305.27265			43387.38302		70.74000		324.00000 
 43692.65567		 954.00688			42738.64880		205.67800		875.00000 
 43692.65567		 305.27265			43387.38302		70.74000		324.00000 
 43692.65567		 954.00688			42738.64880		205.67800		875.00000 
 43692.65567		 305.27265			43387.38302		70.74000		324.00000 
 43692.65567		 954.00688			42738.64880		205.67800		875.00000 
 43692.65567		 305.27265			43387.38302		70.74000		324.00000 
 43692.65567		 954.00688			42738.64880		205.67800		875.00000 
 43692.65567		 305.27265			43387.38302		70.74000		324.00000 
 43692.65567		 954.00688			42738.64880		205.67800		875.00000 
 43692.65567		 305.27265			43387.38302		70.74000		324.00000 
 43692.65567		 954.00688			42738.64880		205.67800		875.00000 
 43692.65567		 305.27265			43387.38302		70.74000		324.00000 
 43692.65567		 954.00688			42738.64880		205.67800		875.00000 
 43692.65567		 305.27265			43387.38302		70.74000		324.00000 
 43692.65567		 954.00688			42738.64880		205.67800		875.00000 
 43692.65567		 305.27265			43387.38302		70.74000		324.00000 
 43692.65567		 954.00688			42738.64880		205.67800		875.00000 
 43692.65567		 305.27265			43387.38302		70.74000		324.00000 
 43692.65567		 954.00688			42738.64880		205.67800		875.00000 
 43692.65567		 305.27265			43387.38302		70.74000		324.00000 
 43692.65567		 954.00688			42738.64880		205.67800		875.00000 
 43692.65567		 305.27265			43387.38302		70.74000		324.00000 
 43692.65567		 954.00688			42738.64880		205.67800		875.00000 
 43692.65567		 305.27265			43387.38302		70.74000		324.00000 
 43692.65567		 954.00688			42738.64880		205.67800		875.00000 
 43692.65567		 305.27265			43387.38302		70.74000		324.00000 
 43692.65567		 954.00688			42738.64880		205.67800		875.00000 
 43692.65567		 305.27265			43387.38302		70.74000		324.00000 
 43692.65567		 954.00688			42738.64880		205.67800		875.00000 
 43692.65567		 305.27265			43387.38302		70.74000		324.00000 
 43692.65567		 954.00688			42738.64880		205.67800		875.00000 
 43692.65567		 305.27265			43387.38302		70.74000		324.00000 
 43692.65567		 954.00688			42738.64880		205.67800		875.00000 
 43692.65567		 305.27265			43387.38302		70.74000		324.00000 
 43692.65567		 954.00688			42738.64880		205.67800		875.00000 
 43692.65567		 305.27265			43387.38302		70.74000		324.00000 
 43692.65567		 954.00688			42738.64880		205.67800		875.00000 
 43692.65567		 305.27265			43387.38302		70.74000		324.00000 
 43692.65567		 954.00688			42738.64880		205.67800		875.00000 
 43692.65567		 305.27265			43387.38302		70.74000		324.00000 
 43692.65567		 954.00688			42738.64880		205.67800		875.00000 
 43692.65567		 305.27265			43387.38302		70.74000		324.00000 
 43692.65567		 954.00688			42738.64880		205.67800		875.00000 
 43692.65567		 305.27265			43387.38302		70.74000		324.00000 
 43692.65567		 954.00688			42738.64880		205.67800		875.00000 
 43692.65567		 305.27265			43387.38302		70.74000		324.00000 
 43692.65567		 954.00688			42738.64880		205.67800		875.00000 
 43692.65567		 305.27265			43387.38302		70.74000		324.00000 
 43692.65567		 954.00688			42738.64880		205.67800		875.00000 
 43692.65567		 305.27265			43387.38302		70.74000		324.00000 
 43692.65567		 954.00688			42738.64880		205.67800		875.00000 
 43692.65567		 305.27265			43387.38302		70.74000		324.00000 
 43692.65567		 954.00688			42738.64880		205.67800		875.00000 
 43692.65567		 305.27265			43387.38302		70.74000		324.00000 
 43692.65567		 954.00688			42738.64880		205.67800		875.00000 
 43692.65567		 305.27265			43387.38302		70.74000		324.00000 
 43692.65567		 954.00688			42738.64880		205.67800		875.00000 
 43692.65567		 305.27265			43387.38302		70.74000		324.00000 
 43692.65567		 954.00688			42738.64880		205.67800		875.00000 
 43692.65567		 305.27265			43387.38302		70.74000		324.00000 
 43692.65567		 954.00688			42738.64880		205.67800		875.00000 
 43692.65567		 305.27265			43387.38302		70.74000		324.00000 
 43692.65567		 954.00688			42738.64880		205.67800		875.00000 
 43692.65567		 305.27265			43387.38302		70.74000		324.00000 
 43692.65567		 954.00688			42738.64880		205.67800		875.00000 
 43692.65567		 305.27265			43387.38302		70.74000		324.00000 
 43692.65567		 954.00688			42738.64880		205.67800		875.00000 
 43692.65567		 305.27265			43387.38302		70.74000		324.00000 
 43692.65567		 954.00688			42738.64880		205.67800		875.00000 
 43692.65567		 305.27265			43387.38302		70.74000		324.00000 
 43692.65567		 954.00688			42738.64880		205.67800		875.00000 
 43692.65567		 305.27265			43387.38302		70.74000		324.00000 
 43692.65567		 954.00688			42738.64880		205.67800		875.00000 
 43692.65567		 305.27265			43387.38302		70.74000		324.00000 
 43692.65567		 954.00688			42738.64880		205.67800		875.00000 
 43692.65567		 305.27265			43387.38302		70.74000		324.00000 
 43692.65567		 954.00688			42738.64880		205.67800		875.00000 
 43692.65567		 305.27265			43387.38302		70.74000		324.00000 
 43692.65567		 954.00688			42738.64880		205.67800		875.00000 
 43692.65567		 305.27265			43387.38302		70.74000		324.00000 
 43692.65567		 954.00688			42738.64880		205.67800		875.00000 
 43692.65567		 305.27265			43387.38302		70.74000		324.00000 
 43692.65567		 954.00688			42738.64880		205.67800		875.00000 
 43692.65567		 305.27265			43387.38302		70.74000		324.00000 
 43692.65567		 954.00688			42738.64880		205.67800		875.00000 
 43692.65567		 305.27265			43387.38302		70.74000		324.00000 
 43692.65567		 954.00688			42738.64880		205.67800		875.00000 
 43692.65567		 305.27265			43387.38302		70.74000		324.00000 
 43692.65567		 954.00688			42738.64880		205.67800		875.00000 
 43692.65567		 305.27265			43387.38302		70.74000		324.00000 
 43692.65567		 954.00688			42738.64880		205.67800		875.00000 
 43692.65567		 305.27265			43387.38302		70.74000		324.00000 
 43692.65567		 954.00688			42738.64880		205.67800		875.00000 
 43692.65567		 305.27265			43387.38302		70.74000		324.00000 
 43692.65567		 954.00688			42738.64880		205.67800		875.00000 
 43692.65567		 305.27265			43387.38302		70.74000		324.00000 
 43692.65567		 954.00688			42738.64880		205.67800		875.00000 
 43692.65567		 305.27265			43387.38302		70.74000		324.00000 
 43692.65567		 954.00688			42738.64880		205.67800		875.00000 
 43692.65567		 305.27265			43387.38302		70.74000		324.00000 
 43692.65567		 954.00688			42738.64880		205.67800		875.00000 
 43692.65567		 305.27265			43387.38302		70.74000		324.00000 
 43692.65567		 954.00688			42738.64880		205.67800		875.00000 
 43692.65567		 305.27265			43387.38302		70.74000		324.00000 
 43692.65567		 954.00688			42738.64880		205.67800		875.00000 
 43692.65567		 305.27265			43387.38302		70.74000		324.00000 
 43692.65567		 954.00688			42738.64880		205.67800		875.00000 
 43692.65567		 305.27265			43387.38302		70.74000		324.00000 
 43692.65567		 954.00688			42738.64880		205.67800		875.00000 
 43692.65567		 305.27265			43387.38302		70.74000		324.00000 
 43692.65567		 954.00688			42738.64880		205.67800		875.00000 
 43692.65567		 305.27265			43387.38302		70.74000		324.00000 
 43692.65567		 954.00688			42738.64880		205.67800		875.00000 
 43692.65567		 305.27265			43387.38302		70.74000		324.00000 
 43692.65567		 954.00688			42738.64880		205.67800		875.00000 
 43692.65567		 305.27265			43387.38302		70.74000		324.00000 
 43692.65567		 954.00688			42738.64880		205.67800		875.00000 
 43692.65567		 305.27265			43387.38302		70.74000		324.00000 
 43692.65567		 954.00688			42738.64880		205.67800		875.00000 
 43692.65567		 305.27265			43387.38302		70.74000		324.00000 
 43692.65567		 954.00688			42738.64880		205.67800		875.00000 
 43692.65567		 305.27265			43387.38302		70.74000		324.00000 
 43692.65567		 954.00688			42738.64880		205.67800		875.00000 
 43692.65567		 305.27265			43387.38302		70.74000		324.00000 
 43692.65567		 954.00688			42738.64880		205.67800		875.00000 
 43692.65567		 305.27265			43387.38302		70.74000		324.00000 
 43692.65567		 954.00688			42738.64880		205.67800		875.00000 
 43692.65567		 305.27265			43387.38302		70.74000		324.00000 
 43692.65567		 954.00688			42738.64880		221.05200		875.00000 
 43692.65567		 305.27265			43387.38302		70.74000		324.00000 
 43692.65567		 954.00688			42738.64880		221.05200		875.00000 
 43692.65567		 305.27265			43387.38302		70.74000		324.00000 
 43692.65567		 954.00688			42738.64880		221.05200		875.00000 
 43692.65567		 305.27265			43387.38302		70.74000		324.00000 
 43692.65567		 954.00688			42738.64880		221.05200		875.00000 
 43692.65567		 305.27265			43387.38302		70.74000		324.00000 
 43692.65567		 954.00688			42738.64880		221.05200		875.00000 
 43692.65567		 305.27265			43387.38302		70.74000		324.00000 
 43692.65567		 954.00688			42738.64880		221.05200		875.00000 
 43692.65567		 305.27265			43387.38302		70.74000		324.00000 
 43692.65567		 954.00688			42738.64880		221.05200		875.00000 
 43692.65567		 305.27265			43387.38302		70.74000		324.00000 
 43692.65567		 954.00688			42738.64880		221.05200		875.00000 
 43692.65567		 305.27265			43387.38302		70.74000		324.00000 
 43692.65567		 954.00688			42738.64880		221.05200		875.00000 
 43692.65567		 305.27265			43387.38302		70.74000		324.00000 
 43692.65567		 954.00688			42738.64880		221.05200		875.00000 
 43692.65567		 305.27265			43387.38302		70.74000		324.00000 
 43692.65567		 954.00688			42738.64880		221.05200		875.00000 
 43692.65567		 305.27265			43387.38302		70.74000		324.00000 
 43692.65567		 954.00688			42738.64880		221.05200		875.00000 
 43692.65567		 305.27265			43387.38302		70.74000		324.00000 
 43692.65567		 954.00688			42738.64880		221.05200		875.00000 
 43692.65567		 305.27265			43387.38302		70.74000		324.00000 
 43692.65567		 954.00688			42738.64880		221.05200		875.00000 
 43692.65567		 305.27265			43387.38302		70.74000		324.00000 
 43692.65567		 954.00688			42738.64880		221.05200		875.00000 
 43692.65567		 305.27265			43387.38302		70.74000		324.00000 
 43692.65567		 954.00688			42738.64880		221.05200		875.00000 
 43692.65567		 305.27265			43387.38302		70.74000		324.00000 
 43692.65567		 954.00688			42738.64880		221.05200		875.00000 
 43692.65567		 305.27265			43387.38302		70.74000		324.00000 
 43692.65567		 954.00688			42738.64880		221.05200		875.00000 
 43692.65567		 305.27265			43387.38302		70.74000		324.00000 
 43692.65567		 954.00688			42738.64880		221.05200		875.00000 
 43692.65567		 305.27265			43387.38302		70.74000		324.00000 
 43692.65567		 954.00688			42738.64880		221.05200		875.00000 
 43692.65567		 305.27265			43387.38302		70.74000		324.00000 
 43692.65567		 954.00688			42738.64880		221.05200		875.00000 
 43692.65567		 305.27265			43387.38302		70.74000		324.00000 
 43692.65567		 954.00688			42738.64880		221.05200		875.00000 
 43692.65567		 305.27265			43387.38302		70.74000		324.00000 
 43692.65567		 954.00688			42738.64880		221.05200		875.00000 
 43692.65567		 305.27265			43387.38302		70.74000		324.00000 
 43692.65567		 954.00688			42738.64880		221.05200		875.00000 
 43692.65567		 305.27265			43387.38302		70.74000		324.00000 
 43692.65567		 954.00688			42738.64880		221.05200		875.00000 
 43692.65567		 305.27265			43387.38302		70.74000		324.00000 
 43692.65567		 954.00688			42738.64880		221.05200		875.00000 
 43692.65567		 305.27265			43387.38302		70.74000		324.00000 
 43692.65567		 954.00688			42738.64880		221.05200		875.00000 
 43692.65567		 305.27265			43387.38302		70.74000		324.00000 
 43692.65567		 954.00688			42738.64880		221.05200		875.00000 
 43692.65567		 305.27265			43387.38302		70.74000		324.00000 
 43692.65567		 954.00688			42738.64880		221.05200		875.00000 
 43692.65567		 305.27265			43387.38302		70.74000		324.00000 
 43692.65567		 954.00688			42738.64880		221.05200		875.00000 
 43692.65567		 305.27265			43387.38302		70.74000		324.00000 
 43692.65567		 954.00688			42738.64880		221.05200		875.00000 
 43692.65567		 305.27265			43387.38302		70.74000		324.00000 
 43692.65567		 954.00688			42738.64880		221.05200		875.00000 
 43692.65567		 305.27265			43387.38302		70.74000		324.00000 
 43692.65567		 954.00688			42738.64880		221.05200		875.00000 
 43692.65567		 305.27265			43387.38302		70.74000		324.00000 
 43692.65567		 954.00688			42738.64880		221.05200		875.00000 
 43692.65567		 305.27265			43387.38302		70.74000		324.00000 
 43692.65567		 954.00688			42738.64880		221.05200		875.00000 
 43692.65567		 305.27265			43387.38302		70.74000		324.00000 
 43692.65567		 954.00688			42738.64880		221.05200		875.00000 
 43692.65567		 305.27265			43387.38302		70.74000		324.00000 
 43692.65567		 954.00688			42738.64880		221.05200		875.00000 
 43692.65567		 305.27265			43387.38302		70.74000		324.00000 
 43692.65567		 954.00688			42738.64880		221.05200		875.00000 
 43692.65567		 305.27265			43387.38302		70.74000		324.00000 
 43692.65567		 954.00688			42738.64880		221.05200		875.00000 
 43692.65567		 305.27265			43387.38302		70.74000		324.00000 
 43692.65567		 954.00688			42738.64880		221.05200		875.00000 
 43692.65567		 305.27265			43387.38302		70.74000		324.00000 
 43692.65567		 954.00688			42738.64880		221.05200		875.00000 
 43692.65567		 305.27265			43387.38302		70.74000		324.00000 
 43692.65567		 954.00688			42738.64880		221.05200		875.00000 
 43692.65567		 305.27265			43387.38302		70.74000		324.00000 
 43692.65567		 954.00688			42738.64880		221.05200		875.00000 
 43692.65567		 305.27265			43387.38302		70.74000		324.00000 
 43692.65567		 954.00688			42738.64880		221.05200		875.00000 
 43692.65567		 305.27265			43387.38302		70.74000		324.00000 
 43692.65567		 954.00688			42738.64880		221.05200		875.00000 
 43692.65567		 305.27265			43387.38302		70.74000		324.00000 
 43692.65567		 954.00688			42738.64880		221.05200		875.00000 
 43692.65567		 305.27265			43387.38302		70.74000		324.00000 
 43692.65567		 954.00688			42738.64880		221.05200		875.00000 
 43692.65567		 305.27265			43387.38302		70.74000		324.00000 
 43692.65567		 954.00688			42738.64880		221.05200		875.00000 
 43692.65567		 305.27265			43387.38302		70.74000		324.00000 
 43692.65567		 954.00688			42738.64880		221.05200		875.00000 
 43692.65567		 305.27265			43387.38302		70.74000		324.00000 
 43692.65567		 954.00688			42738.64880		221.05200		875.00000 
 43692.65567		 305.27265			43387.38302		70.74000		324.00000 
 43692.65567		 954.00688			42738.64880		221.05200		875.00000 
 43692.65567		 305.27265			43387.38302		70.74000		324.00000 
 43692.65567		 954.00688			42738.64880		221.05200		875.00000 
 43692.65567		 305.27265			43387.38302		70.74000		324.00000 
 43692.65567		 954.00688			42738.64880		221.05200		875.00000 
 43692.65567		 305.27265			43387.38302		70.74000		324.00000 
 43692.65567		 954.00688			42738.64880		221.05200		875.00000 
 43692.65567		 305.27265			43387.38302		70.74000		324.00000 
 43692.65567		 954.00688			42738.64880		221.05200		875.00000 
 43692.65567		 305.27265			43387.38302		70.74000		324.00000 
 43692.65567		 954.00688			42738.64880		221.05200		875.00000 
 43692.65567		 305.27265			43387.38302		70.74000		324.00000 
 43692.65567		 954.00688			42738.64880		221.05200		875.00000 
 43692.65567		 305.27265			43387.38302		70.74000		324.00000 
 43692.65567		 954.00688			42738.64880		221.05200		875.00000 
 43692.65567		 305.27265			43387.38302		70.74000		324.00000 
 43692.65567		 954.00688			42738.64880		221.05200		875.00000 
 43692.65567		 305.27265			43387.38302		70.74000		324.00000 
 43692.65567		 954.00688			42738.64880		221.05200		875.00000 
 43692.65567		 305.27265			43387.38302		70.74000		324.00000 
 43692.65567		 954.00688			42738.64880		221.05200		875.00000 
 43692.65567		 305.27265			43387.38302		70.74000		324.00000 
 43692.65567		 954.00688			42738.64880		221.05200		875.00000 
 43692.65567		 305.27265			43387.38302		70.74000		324.00000 
 43692.65567		 954.00688			42738.64880		221.05200		875.00000 
 43692.65567		 305.27265			43387.38302		70.74000		324.00000 
 43692.65567		 954.00688			42738.64880		221.05200		875.00000 
 43692.65567		 305.27265			43387.38302		70.74000		324.00000 
 43692.65567		 954.00688			42738.64880		221.05200		875.00000 
 43692.65567		 305.27265			43387.38302		70.74000		324.00000 
 43692.65567		 954.00688			42738.64880		227.26600		875.00000 
 43692.65567		 305.27265			43387.38302		70.74000		324.00000 
 43692.65567		 954.00688			42738.64880		227.26600		875.00000 
 43692.65567		 305.27265			43387.38302		70.74000		324.00000 
 43692.65567		 954.00688			42738.64880		227.26600		875.00000 
 43692.65567		 305.27265			43387.38302		70.74000		324.00000 
 43692.65567		 954.00688			42738.64880		227.26600		875.00000 
 43692.65567		 305.27265			43387.38302		70.74000		324.00000 
 43692.65567		 954.00688			42738.64880		227.26600		875.00000 
 43692.65567		 305.27265			43387.38302		70.74000		324.00000 
 43692.65567		 954.00688			42738.64880		227.26600		875.00000 
 43692.65567		 305.27265			43387.38302		70.74000		324.00000 
 43692.65567		 954.00688			42738.64880		227.26600		875.00000 
 43692.65567		 305.27265			43387.38302		70.74000		324.00000 
 43692.65567		 954.00688			42738.64880		227.26600		875.00000 
 43692.65567		 305.27265			43387.38302		70.74000		324.00000 
 43692.65567		 954.00688			42738.64880		227.26600		875.00000 
 43692.65567		 305.27265			43387.38302		70.74000		324.00000 
 43692.65567		 954.00688			42738.64880		227.26600		875.00000 
 43692.65567		 305.27265			43387.38302		70.74000		324.00000 
 43692.65567		 954.00688			42738.64880		227.26600		875.00000 
 43692.65567		 305.27265			43387.38302		70.74000		324.00000 
 43692.65567		 954.00688			42738.64880		227.26600		875.00000 
 43692.65567		 305.27265			43387.38302		70.74000		324.00000 
 43692.65567		 954.00688			42738.64880		227.26600		875.00000 
 43692.65567		 305.27265			43387.38302		70.74000		324.00000 
 43692.65567		 954.00688			42738.64880		227.26600		875.00000 
 43692.65567		 305.27265			43387.38302		70.74000		324.00000 
 43692.65567		 954.00688			42738.64880		227.26600		875.00000 
 43692.65567		 305.27265			43387.38302		70.74000		324.00000 
 43692.65567		 954.00688			42738.64880		227.26600		875.00000 
 43692.65567		 305.27265			43387.38302		70.74000		324.00000 
 43692.65567		 954.00688			42738.64880		227.26600		875.00000 
 43692.65567		 305.27265			43387.38302		70.74000		324.00000 
 43692.65567		 954.00688			42738.64880		227.26600		875.00000 
 43692.65567		 305.27265			43387.38302		70.74000		324.00000 
 43692.65567		 954.00688			42738.64880		227.26600		875.00000 
 43692.65567		 305.27265			43387.38302		70.74000		324.00000 
 43692.65567		 954.00688			42738.64880		227.26600		875.00000 
 43692.65567		 305.27265			43387.38302		70.74000		324.00000 
 43692.65567		 954.00688			42738.64880		227.26600		875.00000 
 43692.65567		 305.27265			43387.38302		70.74000		324.00000 
 43692.65567		 954.00688			42738.64880		227.26600		875.00000 
 43692.65567		 305.27265			43387.38302		70.74000		324.00000 
 43692.65567		 954.00688			42738.64880		227.26600		875.00000 
 43692.65567		 305.27265			43387.38302		70.74000		324.00000 
 43692.65567		 954.00688			42738.64880		227.26600		875.00000 
 43692.65567		 305.27265			43387.38302		70.74000		324.00000 
 43692.65567		 954.00688			42738.64880		227.26600		875.00000 
 43692.65567		 305.27265			43387.38302		70.74000		324.00000 
 43692.65567		 954.00688			42738.64880		227.26600		875.00000 
 43692.65567		 305.27265			43387.38302		70.74000		324.00000 
 43692.65567		 954.00688			42738.64880		227.26600		875.00000 
 43692.65567		 305.27265			43387.38302		70.74000		324.00000 
 43692.65567		 954.00688			42738.64880		227.26600		875.00000 
 43692.65567		 305.27265			43387.38302		70.74000		324.00000 
 43692.65567		 954.00688			42738.64880		227.26600		875.00000 
 43692.65567		 305.27265			43387.38302		70.74000		324.00000 
 43692.65567		 954.00688			42738.64880		227.26600		875.00000 
 43692.65567		 305.27265			43387.38302		70.74000		324.00000 
 43692.65567		 954.00688			42738.64880		227.26600		875.00000 
 43692.65567		 305.27265			43387.38302		70.74000		324.00000 
 43692.65567		 954.00688			42738.64880		227.26600		875.00000 
 43692.65567		 305.27265			43387.38302		70.74000		324.00000 
 43692.65567		 954.00688			42738.64880		227.26600		875.00000 
 43692.65567		 305.27265			43387.38302		70.74000		324.00000 
 43692.65567		 954.00688			42738.64880		227.26600		875.00000 
 43692.65567		 305.27265			43387.38302		70.74000		324.00000 
 43692.65567		 954.00688			42738.64880		227.26600		875.00000 
 43692.65567		 305.27265			43387.38302		70.74000		324.00000 
 43692.65567		 954.00688			42738.64880		227.26600		875.00000 
 43692.65567		 305.27265			43387.38302		70.74000		324.00000 
 43692.65567		 954.00688			42738.64880		227.26600		875.00000 
 43692.65567		 305.27265			43387.38302		70.74000		324.00000 
 43692.65567		 954.00688			42738.64880		227.26600		875.00000 
 43692.65567		 305.27265			43387.38302		70.74000		324.00000 
 43692.65567		 954.00688			42738.64880		227.26600		875.00000 
 43692.65567		 305.27265			43387.38302		70.74000		324.00000 
 43692.65567		 954.00688			42738.64880		227.26600		875.00000 
 43692.65567		 305.27265			43387.38302		70.74000		324.00000 
 43692.65567		 954.00688			42738.64880		227.26600		875.00000 
 43692.65567		 305.27265			43387.38302		70.74000		324.00000 
 43692.65567		 954.00688			42738.64880		227.26600		875.00000 
 43692.65567		 305.27265			43387.38302		70.74000		324.00000 
 43692.65567		 954.00688			42738.64880		227.26600		875.00000 
 43692.65567		 305.27265			43387.38302		70.74000		324.00000 
 43692.65567		 954.00688			42738.64880		227.26600		875.00000 
 43692.65567		 305.27265			43387.38302		70.74000		324.00000 
 43692.65567		 954.00688			42738.64880		227.26600		875.00000 
 43692.65567		 305.27265			43387.38302		70.74000		324.00000 
 43692.65567		 954.00688			42738.64880		227.26600		875.00000 
 43692.65567		 305.27265			43387.38302		70.74000		324.00000 
 43692.65567		 954.00688			42738.64880		227.26600		875.00000 
 43692.65567		 305.27265			43387.38302		70.74000		324.00000 
 43692.65567		 954.00688			42738.64880		227.26600		875.00000 
 43692.65567		 305.27265			43387.38302		70.74000		324.00000 
 43692.65567		 954.00688			42738.64880		227.26600		875.00000 
 43692.65567		 305.27265			43387.38302		70.74000		324.00000 
 43692.65567		 954.00688			42738.64880		227.26600		875.00000 
 43692.65567		 305.27265			43387.38302		70.74000		324.00000 
 43692.65567		 954.00688			42738.64880		227.26600		875.00000 
 43692.65567		 305.27265			43387.38302		70.74000		324.00000 
 43692.65567		 954.00688			42738.64880		227.26600		875.00000 
 43692.65567		 305.27265			43387.38302		70.74000		324.00000 
 43692.65567		 954.00688			42738.64880		227.26600		875.00000 
 43692.65567		 305.27265			43387.38302		70.74000		324.00000 
 43692.65567		 954.00688			42738.64880		227.26600		875.00000 
 43692.65567		 305.27265			43387.38302		70.74000		324.00000 
 43692.65567		 954.00688			42738.64880		227.26600		875.00000 
 43692.65567		 305.27265			43387.38302		70.74000		324.00000 
 43692.65567		 954.00688			42738.64880		227.26600		875.00000 
 43692.65567		 305.27265			43387.38302		70.74000		324.00000 
 43692.65567		 954.00688			42738.64880		227.26600		875.00000 
 43692.65567		 305.27265			43387.38302		70.74000		324.00000 
 43692.65567		 954.00688			42738.64880		227.26600		875.00000 
 43692.65567		 305.27265			43387.38302		70.74000		324.00000 
 43692.65567		 954.00688			42738.64880		227.26600		875.00000 
 43692.65567		 305.27265			43387.38302		70.74000		324.00000 
 43692.65567		 954.00688			42738.64880		227.26600		875.00000 
 43692.65567		 305.27265			43387.38302		70.74000		324.00000 
 43692.65567		 954.00688			42738.64880		227.26600		875.00000 
 43692.65567		 305.27265			43387.38302		70.74000		324.00000 
 43692.65567		 954.00688			42738.64880		227.26600		875.00000 
 43692.65567		 305.27265			43387.38302		70.74000		324.00000 
 43692.65567		 954.00688			42738.64880		227.26600		875.00000 
 43692.65567		 305.27265			43387.38302		70.74000		324.00000 
 43692.65567		 954.00688			42738.64880		227.26600		875.00000 
 43692.65567		 305.27265			43387.38302		70.74000		324.00000 
 43692.65567		 954.00688			42738.64880		228.67800		875.00000 
 43692.65567		 305.27265			43387.38302		70.74000		324.00000 
 43692.65567		 954.00688			42738.64880		228.67800		875.00000 
 43692.65567		 305.27265			43387.38302		70.74000		324.00000 
 43692.65567		 954.00688			42738.64880		228.67800		875.00000 
 43692.65567		 305.27265			43387.38302		70.74000		324.00000 
 43692.65567		 954.00688			42738.64880		228.67800		875.00000 
 43692.65567		 305.27265			43387.38302		70.74000		324.00000 
 43692.65567		 954.00688			42738.64880		228.67800		875.00000 
 43692.65567		 305.27265			43387.38302		70.74000		324.00000 
 43692.65567		 954.00688			42738.64880		228.67800		875.00000 
 43692.65567		 305.27265			43387.38302		70.74000		324.00000 
 43692.65567		 954.00688			42738.64880		228.67800		875.00000 
 43692.65567		 305.27265			43387.38302		70.74000		324.00000 
 43692.65567		 954.00688			42738.64880		228.67800		875.00000 
 43692.65567		 305.27265			43387.38302		70.74000		324.00000 
 43692.65567		 954.00688			42738.64880		228.67800		875.00000 
 43692.65567		 305.27265			43387.38302		70.74000		324.00000 
 43692.65567		 954.00688			42738.64880		228.67800		875.00000 
 43692.65567		 305.27265			43387.38302		70.74000		324.00000 
 43692.65567		 954.00688			42738.64880		228.67800		875.00000 
 43692.65567		 305.27265			43387.38302		70.74000		324.00000 
 43692.65567		 954.00688			42738.64880		228.67800		875.00000 
 43692.65567		 305.27265			43387.38302		70.74000		324.00000 
 43692.65567		 954.00688			42738.64880		228.67800		875.00000 
 43692.65567		 305.27265			43387.38302		70.74000		324.00000 
 43692.65567		 954.00688			42738.64880		228.67800		875.00000 
 43692.65567		 305.27265			43387.38302		70.74000		324.00000 
 43692.65567		 954.00688			42738.64880		228.67800		875.00000 
 43692.65567		 305.27265			43387.38302		70.74000		324.00000 
 43692.65567		 954.00688			42738.64880		228.67800		875.00000 
 43692.65567		 305.27265			43387.38302		70.74000		324.00000 
 43692.65567		 954.00688			42738.64880		228.67800		875.00000 
 43692.65567		 305.27265			43387.38302		70.74000		324.00000 
 43692.65567		 954.00688			42738.64880		228.67800		875.00000 
 43692.65567		 305.27265			43387.38302		70.74000		324.00000 
 43692.65567		 954.00688			42738.64880		228.67800		875.00000 
 43692.65567		 305.27265			43387.38302		70.74000		324.00000 
 43692.65567		 954.00688			42738.64880		228.67800		875.00000 
 43692.65567		 305.27265			43387.38302		70.74000		324.00000 
 43692.65567		 954.00688			42738.64880		228.67800		875.00000 
 43692.65567		 305.27265			43387.38302		70.74000		324.00000 
 43692.65567		 954.00688			42738.64880		228.67800		875.00000 
 43692.65567		 305.27265			43387.38302		70.74000		324.00000 
 43692.65567		 954.00688			42738.64880		228.67800		875.00000 
 43692.65567		 305.27265			43387.38302		70.74000		324.00000 
 43692.65567		 954.00688			42738.64880		228.67800		875.00000 
 43692.65567		 305.27265			43387.38302		70.74000		324.00000 
 43692.65567		 954.00688			42738.64880		228.67800		875.00000 
 43692.65567		 305.27265			43387.38302		70.74000		324.00000 
 43692.65567		 954.00688			42738.64880		228.67800		875.00000 
 43692.65567		 305.27265			43387.38302		70.74000		324.00000 
 43692.65567		 954.00688			42738.64880		228.67800		875.00000 
 43692.65567		 305.27265			43387.38302		70.74000		324.00000 
 43692.65567		 954.00688			42738.64880		228.67800		875.00000 
 43692.65567		 305.27265			43387.38302		70.74000		324.00000 
 43692.65567		 954.00688			42738.64880		228.67800		875.00000 
 43692.65567		 305.27265			43387.38302		70.74000		324.00000 
 43692.65567		 954.00688			42738.64880		228.67800		875.00000 
 43692.65567		 305.27265			43387.38302		70.74000		324.00000 
 43692.65567		 954.00688			42738.64880		228.67800		875.00000 
 43692.65567		 305.27265			43387.38302		70.74000		324.00000 
 43692.65567		 954.00688			42738.64880		228.67800		875.00000 
 43692.65567		 305.27265			43387.38302		70.74000		324.00000 
 43692.65567		 954.00688			42738.64880		228.67800		875.00000 
 43692.65567		 305.27265			43387.38302		70.74000		324.00000 
 43692.65567		 954.00688			42738.64880		228.67800		875.00000 
 43692.65567		 305.27265			43387.38302		70.74000		324.00000 
 43692.65567		 954.00688			42738.64880		228.67800		875.00000 
 43692.65567		 305.27265			43387.38302		70.74000		324.00000 
 43692.65567		 954.00688			42738.64880		228.67800		875.00000 
 43692.65567		 305.27265			43387.38302		70.74000		324.00000 
 43692.65567		 954.00688			42738.64880		228.67800		875.00000 
 43692.65567		 305.27265			43387.38302		70.74000		324.00000 
 43692.65567		 954.00688			42738.64880		228.67800		875.00000 
 43692.65567		 305.27265			43387.38302		70.74000		324.00000 
 43692.65567		 954.00688			42738.64880		228.67800		875.00000 
 43692.65567		 305.27265			43387.38302		70.74000		324.00000 
 43692.65567		 954.00688			42738.64880		228.67800		875.00000 
 43692.65567		 305.27265			43387.38302		70.74000		324.00000 
 43692.65567		 954.00688			42738.64880		228.67800		875.00000 
 43692.65567		 305.27265			43387.38302		70.74000		324.00000 
 43692.65567		 954.00688			42738.64880		228.67800		875.00000 
 43692.65567		 305.27265			43387.38302		69.63800		324.00000 
 43692.65567		 954.00688			42738.64880		228.67800		875.00000 
 43692.65567		 305.27265			43387.38302		69.63800		324.00000 
 43692.65567		 954.00688			42738.64880		228.67800		875.00000 
 43692.65567		 305.27265			43387.38302		69.63800		324.00000 
 43692.65567		 954.00688			42738.64880		228.67800		875.00000 
 43692.65567		 305.27265			43387.38302		69.63800		324.00000 
 43692.65567		 954.00688			42738.64880		228.67800		875.00000 
 43692.65567		 305.27265			43387.38302		69.63800		324.00000 
 43692.65567		 954.00688			42738.64880		228.67800		875.00000 
 43692.65567		 305.27265			43387.38302		69.63800		324.00000 
 43692.65567		 954.00688			42738.64880		228.67800		875.00000 
 43692.65567		 305.27265			43387.38302		69.63800		324.00000 
 43692.65567		 954.00688			42738.64880		228.67800		875.00000 
 43692.65567		 305.27265			43387.38302		69.63800		324.00000 
 43692.65567		 954.00688			42738.64880		228.67800		875.00000 
 43692.65567		 305.27265			43387.38302		69.63800		324.00000 
 43692.65567		 954.00688			42738.64880		228.67800		875.00000 
 43692.65567		 305.27265			43387.38302		69.63800		324.00000 
 43692.65567		 954.00688			42738.64880		228.67800		875.00000 
 43692.65567		 305.27265			43387.38302		69.63800		324.00000 
 43692.65567		 954.00688			42738.64880		228.67800		875.00000 
 43692.65567		 305.27265			43387.38302		69.63800		324.00000 
 43692.65567		 954.00688			42738.64880		228.67800		875.00000 
 43692.65567		 305.27265			43387.38302		69.63800		324.00000 
 43692.65567		 954.00688			42738.64880		228.67800		875.00000 
 43692.65567		 305.27265			43387.38302		69.63800		324.00000 
 43692.65567		 954.00688			42738.64880		228.67800		875.00000 
 43692.65567		 305.27265			43387.38302		69.63800		324.00000 
 43692.65567		 954.00688			42738.64880		228.67800		875.00000 
 43692.65567		 305.27265			43387.38302		69.63800		324.00000 
 43692.65567		 954.00688			42738.64880		228.67800		875.00000 
 43692.65567		 305.27265			43387.38302		69.63800		324.00000 
 43692.65567		 954.00688			42738.64880		228.67800		875.00000 
 43692.65567		 305.27265			43387.38302		69.63800		324.00000 
 43692.65567		 954.00688			42738.64880		228.67800		875.00000 
 43692.65567		 305.27265			43387.38302		69.63800		324.00000 
 43692.65567		 954.00688			42738.64880		228.67800		875.00000 
 43692.65567		 305.27265			43387.38302		69.63800		324.00000 
 43692.65567		 954.00688			42738.64880		229.89800		875.00000 
 43692.65567		 305.27265			43387.38302		69.63800		324.00000 
 43692.65567		 954.00688			42738.64880		229.89800		875.00000 
 43692.65567		 305.27265			43387.38302		69.63800		324.00000 
 43692.65567		 954.00688			42738.64880		229.89800		875.00000 
 43692.65567		 305.27265			43387.38302		69.63800		324.00000 
 43692.65567		 954.00688			42738.64880		229.89800		875.00000 
 43692.65567		 305.27265			43387.38302		69.63800		324.00000 
 43692.65567		 954.00688			42738.64880		229.89800		875.00000 
 43692.65567		 305.27265			43387.38302		69.63800		324.00000 
 43692.65567		 954.00688			42738.64880		229.89800		875.00000 
 43692.65567		 305.27265			43387.38302		69.63800		324.00000 
 43692.65567		 954.00688			42738.64880		229.89800		875.00000 
 43692.65567		 305.27265			43387.38302		69.63800		324.00000 
 43692.65567		 954.00688			42738.64880		229.89800		875.00000 
 43692.65567		 305.27265			43387.38302		69.63800		324.00000 
 43692.65567		 954.00688			42738.64880		229.89800		875.00000 
 43692.65567		 305.27265			43387.38302		69.63800		324.00000 
 43692.65567		 954.00688			42738.64880		229.89800		875.00000 
 43692.65567		 305.27265			43387.38302		69.63800		324.00000 
 43692.65567		 954.00688			42738.64880		229.89800		875.00000 
 43692.65567		 305.27265			43387.38302		69.63800		324.00000 
 43692.65567		 954.00688			42738.64880		229.89800		875.00000 
 43692.65567		 305.27265			43387.38302		69.63800		324.00000 
 43692.65567		 954.00688			42738.64880		229.89800		875.00000 
 43692.65567		 305.27265			43387.38302		69.63800		324.00000 
 43692.65567		 954.00688			42738.64880		229.89800		875.00000 
 43692.65567		 305.27265			43387.38302		69.63800		324.00000 
 43692.65567		 954.00688			42738.64880		229.89800		875.00000 
 43692.65567		 305.27265			43387.38302		69.63800		324.00000 
 43692.65567		 954.00688			42738.64880		229.89800		875.00000 
 43692.65567		 305.27265			43387.38302		69.63800		324.00000 
 43692.65567		 954.00688			42738.64880		229.89800		875.00000 
 43692.65567		 305.27265			43387.38302		69.63800		324.00000 
 43692.65567		 954.00688			42738.64880		229.89800		875.00000 
 43692.65567		 305.27265			43387.38302		69.63800		324.00000 
 43692.65567		 954.00688			42738.64880		229.89800		875.00000 
 43692.65567		 305.27265			43387.38302		69.63800		324.00000 
 43692.65567		 954.00688			42738.64880		229.89800		875.00000 
 43692.65567		 305.27265			43387.38302		69.63800		324.00000 
 43692.65567		 954.00688			42738.64880		229.89800		875.00000 
 43692.65567		 305.27265			43387.38302		69.63800		324.00000 
 43692.65567		 954.00688			42738.64880		229.89800		875.00000 
 43692.65567		 305.27265			43387.38302		69.63800		324.00000 
 43692.65567		 954.00688			42738.64880		229.89800		875.00000 
 43692.65567		 305.27265			43387.38302		69.63800		324.00000 
 43692.65567		 954.00688			42738.64880		229.89800		875.00000 
 43692.65567		 305.27265			43387.38302		69.63800		324.00000 
 43692.65567		 954.00688			42738.64880		229.89800		875.00000 
 43692.65567		 305.27265			43387.38302		69.63800		324.00000 
 43692.65567		 954.00688			42738.64880		229.89800		875.00000 
 43692.65567		 305.27265			43387.38302		69.63800		324.00000 
 43692.65567		 954.00688			42738.64880		229.89800		875.00000 
 43692.65567		 305.27265			43387.38302		69.63800		324.00000 
 43692.65567		 954.00688			42738.64880		229.89800		875.00000 
 43692.65567		 305.27265			43387.38302		69.63800		324.00000 
 43692.65567		 954.00688			42738.64880		229.89800		875.00000 
 43692.65567		 305.27265			43387.38302		69.63800		324.00000 
 43692.65567		 954.00688			42738.64880		229.89800		875.00000 
 43692.65567		 305.27265			43387.38302		69.63800		324.00000 
 43692.65567		 954.00688			42738.64880		229.89800		875.00000 
 43692.65567		 305.27265			43387.38302		69.63800		324.00000 
 43692.65567		 954.00688			42738.64880		229.89800		875.00000 
 43692.65567		 305.27265			43387.38302		69.63800		324.00000 
 43692.65567		 954.00688			42738.64880		229.89800		875.00000 
 43692.65567		 305.27265			43387.38302		69.63800		324.00000 
 43692.65567		 954.00688			42738.64880		229.89800		875.00000 
 43692.65567		 305.27265			43387.38302		69.63800		324.00000 
 43692.65567		 954.00688			42738.64880		229.89800		875.00000 
 43692.65567		 305.27265			43387.38302		69.63800		324.00000 
 43692.65567		 954.00688			42738.64880		229.89800		875.00000 
 43692.65567		 305.27265			43387.38302		69.63800		324.00000 
 43692.65567		 954.00688			42738.64880		229.89800		875.00000 
 43692.65567		 305.27265			43387.38302		69.63800		324.00000 
 43692.65567		 954.00688			42738.64880		229.89800		875.00000 
 43692.65567		 305.27265			43387.38302		69.63800		324.00000 
 43692.65567		 954.00688			42738.64880		229.89800		875.00000 
 43692.65567		 305.27265			43387.38302		69.63800		324.00000 
 43692.65567		 954.00688			42738.64880		229.89800		875.00000 
 43692.65567		 305.27265			43387.38302		69.63800		324.00000 
 43692.65567		 954.00688			42738.64880		229.89800		875.00000 
 43692.65567		 305.27265			43387.38302		69.63800		324.00000 
 43692.65567		 954.00688			42738.64880		229.89800		875.00000 
 43692.65567		 305.27265			43387.38302		69.63800		324.00000 
 43692.65567		 954.00688			42738.64880		229.89800		875.00000 
 43692.65567		 305.27265			43387.38302		69.63800		324.00000 
 43692.65567		 954.00688			42738.64880		229.89800		875.00000 
 43692.65567		 305.27265			43387.38302		69.63800		324.00000 
 43692.65567		 954.00688			42738.64880		229.89800		875.00000 
 43692.65567		 305.27265			43387.38302		69.63800		324.00000 
 43692.65567		 954.00688			42738.64880		229.89800		875.00000 
 43692.65567		 305.27265			43387.38302		69.63800		324.00000 
 43692.65567		 954.00688			42738.64880		229.89800		875.00000 
 43692.65567		 305.27265			43387.38302		69.63800		324.00000 
 43692.65567		 954.00688			42738.64880		229.89800		875.00000 
 43692.65567		 305.27265			43387.38302		69.63800		324.00000 
 43692.65567		 954.00688			42738.64880		229.89800		875.00000 
 43692.65567		 305.27265			43387.38302		69.63800		324.00000 
 43692.65567		 954.00688			42738.64880		229.89800		875.00000 
 43692.65567		 305.27265			43387.38302		69.63800		324.00000 
 43692.65567		 954.00688			42738.64880		229.89800		875.00000 
 43692.65567		 305.27265			43387.38302		69.63800		324.00000 
 43692.65567		 954.00688			42738.64880		229.89800		875.00000 
 43692.65567		 305.27265			43387.38302		69.63800		324.00000 
 43692.65567		 954.00688			42738.64880		229.89800		875.00000 
 43692.65567		 305.27265			43387.38302		69.63800		324.00000 
 43692.65567		 954.00688			42738.64880		229.89800		875.00000 
 43692.65567		 305.27265			43387.38302		69.63800		324.00000 
 43692.65567		 954.00688			42738.64880		229.89800		875.00000 
 43692.65567		 305.27265			43387.38302		69.63800		324.00000 
 43692.65567		 954.00688			42738.64880		229.89800		875.00000 
 43692.65567		 305.27265			43387.38302		69.63800		324.00000 
 43692.65567		 954.00688			42738.64880		229.89800		875.00000 
 43692.65567		 305.27265			43387.38302		69.63800		324.00000 
 43692.65567		 954.00688			42738.64880		229.89800		875.00000 
 43692.65567		 305.27265			43387.38302		69.63800		324.00000 
 43692.65567		 954.00688			42738.64880		229.89800		875.00000 
 43692.65567		 305.27265			43387.38302		69.63800		324.00000 
 43692.65567		 954.00688			42738.64880		229.89800		875.00000 
 43692.65567		 305.27265			43387.38302		69.63800		324.00000 
 43692.65567		 954.00688			42738.64880		229.89800		875.00000 
 43692.65567		 305.27265			43387.38302		69.63800		324.00000 
 43692.65567		 954.00688			42738.64880		229.89800		875.00000 
 43692.65567		 305.27265			43387.38302		69.63800		324.00000 
 43692.65567		 954.00688			42738.64880		229.89800		875.00000 
 43692.65567		 305.27265			43387.38302		69.63800		324.00000 
 43692.65567		 954.00688			42738.64880		229.89800		875.00000 
 43692.65567		 305.27265			43387.38302		69.63800		324.00000 
 43692.65567		 954.00688			42738.64880		230.14400		875.00000 
 43692.65567		 305.27265			43387.38302		69.63800		324.00000 
 43692.65567		 954.00688			42738.64880		230.14400		875.00000 
 43692.65567		 305.27265			43387.38302		69.63800		324.00000 
 43692.65567		 954.00688			42738.64880		230.14400		875.00000 
 43692.65567		 305.27265			43387.38302		69.63800		324.00000 
 43692.65567		 954.00688			42738.64880		230.14400		875.00000 
 43692.65567		 305.27265			43387.38302		69.63800		324.00000 
 43692.65567		 954.00688			42738.64880		230.14400		875.00000 
 43692.65567		 305.27265			43387.38302		69.63800		324.00000 
 43692.65567		 954.00688			42738.64880		230.14400		875.00000 
 43692.65567		 305.27265			43387.38302		69.63800		324.00000 
 43692.65567		 954.00688			42738.64880		230.14400		875.00000 
 43692.65567		 305.27265			43387.38302		69.63800		324.00000 
 43692.65567		 954.00688			42738.64880		230.14400		875.00000 
 43692.65567		 305.27265			43387.38302		69.63800		324.00000 
 43692.65567		 954.00688			42738.64880		230.14400		875.00000 
 43692.65567		 305.27265			43387.38302		69.63800		324.00000 
 43692.65567		 954.00688			42738.64880		230.14400		875.00000 
 43692.65567		 305.27265			43387.38302		69.63800		324.00000 
 43692.65567		 954.00688			42738.64880		230.14400		875.00000 
 43692.65567		 305.27265			43387.38302		69.63800		324.00000 
 43692.65567		 954.00688			42738.64880		230.14400		875.00000 
 43692.65567		 305.27265			43387.38302		69.63800		324.00000 
 43692.65567		 954.00688			42738.64880		230.14400		875.00000 
 43692.65567		 305.27265			43387.38302		69.63800		324.00000 
 43692.65567		 954.00688			42738.64880		230.14400		875.00000 
 43692.65567		 305.27265			43387.38302		69.63800		324.00000 
 43692.65567		 954.00688			42738.64880		230.14400		875.00000 
 43692.65567		 305.27265			43387.38302		69.63800		324.00000 
 43692.65567		 954.00688			42738.64880		230.14400		875.00000 
 43692.65567		 305.27265			43387.38302		69.63800		324.00000 
 43692.65567		 954.00688			42738.64880		230.14400		875.00000 
 43692.65567		 305.27265			43387.38302		69.63800		324.00000 
 43692.65567		 954.00688			42738.64880		230.14400		875.00000 
 43692.65567		 305.27265			43387.38302		69.63800		324.00000 
 43692.65567		 954.00688			42738.64880		230.14400		875.00000 
 43692.65567		 305.27265			43387.38302		69.63800		324.00000 
 43692.65567		 954.00688			42738.64880		230.14400		875.00000 
 43692.65567		 305.27265			43387.38302		69.63800		324.00000 
 43692.65567		 954.00688			42738.64880		230.14400		875.00000 
 43692.65567		 305.27265			43387.38302		69.63800		324.00000 
 43692.65567		 954.00688			42738.64880		230.14400		875.00000 
 43692.65567		 305.27265			43387.38302		69.63800		324.00000 
 43692.65567		 954.00688			42738.64880		230.14400		875.00000 
 43692.65567		 305.27265			43387.38302		69.63800		324.00000 
 43692.65567		 954.00688			42738.64880		230.14400		875.00000 
 43692.65567		 305.27265			43387.38302		69.63800		324.00000 
 43692.65567		 954.00688			42738.64880		230.14400		875.00000 
 43692.65567		 305.27265			43387.38302		69.63800		324.00000 
 43692.65567		 954.00688			42738.64880		230.14400		875.00000 
 43692.65567		 305.27265			43387.38302		69.63800		324.00000 
 43692.65567		 954.00688			42738.64880		230.14400		875.00000 
 43692.65567		 305.27265			43387.38302		69.63800		324.00000 
 43692.65567		 954.00688			42738.64880		230.14400		875.00000 
 43692.65567		 305.27265			43387.38302		69.63800		324.00000 
 43692.65567		 954.00688			42738.64880		230.14400		875.00000 
 43692.65567		 305.27265			43387.38302		69.63800		324.00000 
 43692.65567		 954.00688			42738.64880		230.14400		875.00000 
 43692.65567		 305.27265			43387.38302		69.63800		324.00000 
 43692.65567		 954.00688			42738.64880		230.14400		875.00000 
 43692.65567		 305.27265			43387.38302		69.63800		324.00000 
 43692.65567		 954.00688			42738.64880		230.14400		875.00000 
 43692.65567		 305.27265			43387.38302		69.63800		324.00000 
 43692.65567		 954.00688			42738.64880		230.14400		875.00000 
 43692.65567		 305.27265			43387.38302		69.63800		324.00000 
 43692.65567		 954.00688			42738.64880		230.14400		875.00000 
 43692.65567		 305.27265			43387.38302		69.63800		324.00000 
 43692.65567		 954.00688			42738.64880		230.14400		875.00000 
 43692.65567		 305.27265			43387.38302		69.63800		324.00000 
 43692.65567		 954.00688			42738.64880		230.14400		875.00000 
 43692.65567		 305.27265			43387.38302		69.63800		324.00000 
 43692.65567		 954.00688			42738.64880		230.14400		875.00000 
 43692.65567		 305.27265			43387.38302		69.63800		324.00000 
 43692.65567		 954.00688			42738.64880		230.14400		875.00000 
 43692.65567		 305.27265			43387.38302		69.63800		324.00000 
 43692.65567		 954.00688			42738.64880		230.14400		875.00000 
 43692.65567		 305.27265			43387.38302		69.63800		324.00000 
 43692.65567		 954.00688			42738.64880		230.14400		875.00000 
 43692.65567		 305.27265			43387.38302		69.63800		324.00000 
 43692.65567		 954.00688			42738.64880		230.14400		875.00000 
 43692.65567		 305.27265			43387.38302		69.63800		324.00000 
 43692.65567		 954.00688			42738.64880		230.14400		875.00000 
 43692.65567		 305.27265			43387.38302		69.63800		324.00000 
 43692.65567		 954.00688			42738.64880		230.14400		875.00000 
 43692.65567		 305.27265			43387.38302		69.63800		324.00000 
 43692.65567		 954.00688			42738.64880		230.14400		875.00000 
 43692.65567		 305.27265			43387.38302		69.63800		324.00000 
 43692.65567		 954.00688			42738.64880		230.14400		875.00000 
 43692.65567		 305.27265			43387.38302		69.63800		324.00000 
 43692.65567		 954.00688			42738.64880		230.14400		875.00000 
 43692.65567		 305.27265			43387.38302		69.63800		324.00000 
 43692.65567		 954.00688			42738.64880		230.14400		875.00000 
 43692.65567		 305.27265			43387.38302		69.63800		324.00000 
 43692.65567		 954.00688			42738.64880		230.14400		875.00000 
 43692.65567		 305.27265			43387.38302		69.63800		324.00000 
 43692.65567		 954.00688			42738.64880		230.14400		875.00000 
 43692.65567		 305.27265			43387.38302		69.63800		324.00000 
 43692.65567		 954.00688			42738.64880		230.14400		875.00000 
 43692.65567		 305.27265			43387.38302		69.63800		324.00000 
 43692.65567		 954.00688			42738.64880		230.14400		875.00000 
 43692.65567		 305.27265			43387.38302		69.63800		324.00000 
 43692.65567		 954.00688			42738.64880		230.14400		875.00000 
 43692.65567		 305.27265			43387.38302		69.63800		324.00000 
 43692.65567		 954.00688			42738.64880		230.14400		875.00000 
 43692.65567		 305.27265			43387.38302		69.63800		324.00000 
 43692.65567		 954.00688			42738.64880		230.14400		875.00000 
 43692.65567		 305.27265			43387.38302		69.63800		324.00000 
 43692.65567		 954.00688			42738.64880		230.14400		875.00000 
 43692.65567		 305.27265			43387.38302		69.63800		324.00000 
 43692.65567		 954.00688			42738.64880		230.14400		875.00000 
 43692.65567		 305.27265			43387.38302		69.63800		324.00000 
 43692.65567		 954.00688			42738.64880		230.14400		875.00000 
 43692.65567		 305.27265			43387.38302		69.63800		324.00000 
 43692.65567		 954.00688			42738.64880		230.14400		875.00000 
 43692.65567		 305.27265			43387.38302		69.63800		324.00000 
 43692.65567		 954.00688			42738.64880		230.14400		875.00000 
 43692.65567		 305.27265			43387.38302		69.63800		324.00000 
 43692.65567		 954.00688			42738.64880		230.14400		875.00000 
 43692.65567		 305.27265			43387.38302		69.63800		324.00000 
 43692.65567		 954.00688			42738.64880		230.14400		875.00000 
 43692.65567		 305.27265			43387.38302		69.63800		324.00000 
 43692.65567		 954.00688			42738.64880		230.14400		875.00000 
 43692.65567		 305.27265			43387.38302		69.63800		324.00000 
 43692.65567		 954.00688			42738.64880		230.14400		875.00000 
 43692.65567		 305.27265			43387.38302		69.63800		324.00000 
 43692.65567		 954.00688			42738.64880		230.14400		875.00000 
 43692.65567		 305.27265			43387.38302		69.63800		324.00000 
 43692.65567		 954.00688			42738.64880		229.54400		875.00000 
 43692.65567		 305.27265			43387.38302		69.63800		324.00000 
 43692.65567		 954.00688			42738.64880		229.54400		875.00000 
 43692.65567		 305.27265			43387.38302		69.63800		324.00000 
 43692.65567		 954.00688			42738.64880		229.54400		875.00000 
 43692.65567		 305.27265			43387.38302		69.63800		324.00000 
 43692.65567		 954.00688			42738.64880		229.54400		875.00000 
 43692.65567		 305.27265			43387.38302		69.63800		324.00000 
 43692.65567		 954.00688			42738.64880		229.54400		875.00000 
 43692.65567		 305.27265			43387.38302		69.63800		324.00000 
 43692.65567		 954.00688			42738.64880		229.54400		875.00000 
 43692.65567		 305.27265			43387.38302		69.63800		324.00000 
 43692.65567		 954.00688			42738.64880		229.54400		875.00000 
 43692.65567		 305.27265			43387.38302		69.63800		324.00000 
 43692.65567		 954.00688			42738.64880		229.54400		875.00000 
 43692.65567		 305.27265			43387.38302		69.63800		324.00000 
 43692.65567		 954.00688			42738.64880		229.54400		875.00000 
 43692.65567		 305.27265			43387.38302		69.63800		324.00000 
 43692.65567		 954.00688			42738.64880		229.54400		875.00000 
 43692.65567		 305.27265			43387.38302		69.63800		324.00000 
 43692.65567		 954.00688			42738.64880		229.54400		875.00000 
 43692.65567		 305.27265			43387.38302		69.63800		324.00000 
 43692.65567		 954.00688			42738.64880		229.54400		875.00000 
 43692.65567		 305.27265			43387.38302		69.63800		324.00000 
 43692.65567		 954.00688			42738.64880		229.54400		875.00000 
 43692.65567		 305.27265			43387.38302		69.63800		324.00000 
 43692.65567		 954.00688			42738.64880		229.54400		875.00000 
 43692.65567		 305.27265			43387.38302		69.63800		324.00000 
 43692.65567		 954.00688			42738.64880		229.54400		875.00000 
 43692.65567		 305.27265			43387.38302		69.63800		324.00000 
 43692.65567		 954.00688			42738.64880		229.54400		875.00000 
 43692.65567		 305.27265			43387.38302		69.63800		324.00000 
 43692.65567		 954.00688			42738.64880		229.54400		875.00000 
 43692.65567		 305.27265			43387.38302		69.63800		324.00000 
 43692.65567		 954.00688			42738.64880		229.54400		875.00000 
 43692.65567		 305.27265			43387.38302		69.63800		324.00000 
 43692.65567		 954.00688			42738.64880		229.54400		875.00000 
 43692.65567		 305.27265			43387.38302		69.63800		324.00000 
 43692.65567		 954.00688			42738.64880		229.54400		875.00000 
 43692.65567		 305.27265			43387.38302		69.63800		324.00000 
 43692.65567		 954.00688			42738.64880		229.54400		875.00000 
 43692.65567		 305.27265			43387.38302		69.63800		324.00000 
 43692.65567		 954.00688			42738.64880		229.54400		875.00000 
 43692.65567		 305.27265			43387.38302		69.63800		324.00000 
 43692.65567		 954.00688			42738.64880		229.54400		875.00000 
 43692.65567		 305.27265			43387.38302		69.63800		324.00000 
 43692.65567		 954.00688			42738.64880		229.54400		875.00000 
 43692.65567		 305.27265			43387.38302		69.63800		324.00000 
 43692.65567		 954.00688			42738.64880		229.54400		875.00000 
 43692.65567		 305.27265			43387.38302		69.63800		324.00000 
 43692.65567		 954.00688			42738.64880		229.54400		875.00000 
 43692.65567		 305.27265			43387.38302		69.63800		324.00000 
 43692.65567		 954.00688			42738.64880		229.54400		875.00000 
 43692.65567		 305.27265			43387.38302		69.63800		324.00000 
 43692.65567		 954.00688			42738.64880		229.54400		875.00000 
 43692.65567		 305.27265			43387.38302		69.63800		324.00000 
 43692.65567		 954.00688			42738.64880		229.54400		875.00000 
 43692.65567		 305.27265			43387.38302		69.63800		324.00000 
 43692.65567		 954.00688			42738.64880		229.54400		875.00000 
 43692.65567		 305.27265			43387.38302		69.63800		324.00000 
 43692.65567		 954.00688			42738.64880		229.54400		875.00000 
 43692.65567		 305.27265			43387.38302		69.63800		324.00000 
 43692.65567		 954.00688			42738.64880		229.54400		875.00000 
 43692.65567		 305.27265			43387.38302		69.63800		324.00000 
 43692.65567		 954.00688			42738.64880		229.54400		875.00000 
 43692.65567		 305.27265			43387.38302		69.63800		324.00000 
 43692.65567		 954.00688			42738.64880		229.54400		875.00000 
 43692.65567		 305.27265			43387.38302		69.63800		324.00000 
 43692.65567		 954.00688			42738.64880		229.54400		875.00000 
 43692.65567		 305.27265			43387.38302		69.63800		324.00000 
 43692.65567		 954.00688			42738.64880		229.54400		875.00000 
 43692.65567		 305.27265			43387.38302		69.63800		324.00000 
 43692.65567		 954.00688			42738.64880		229.54400		875.00000 
 43692.65567		 305.27265			43387.38302		69.63800		324.00000 
 43692.65567		 954.00688			42738.64880		229.54400		875.00000 
 43692.65567		 305.27265			43387.38302		69.63800		324.00000 
 43692.65567		 954.00688			42738.64880		229.54400		875.00000 
 43692.65567		 305.27265			43387.38302		69.63800		324.00000 
 43692.65567		 954.00688			42738.64880		229.54400		875.00000 
 43692.65567		 305.27265			43387.38302		69.63800		324.00000 
 43692.65567		 954.00688			42738.64880		229.54400		875.00000 
 43692.65567		 305.27265			43387.38302		69.63800		324.00000 
 43692.65567		 954.00688			42738.64880		229.54400		875.00000 
 43692.65567		 305.27265			43387.38302		69.63800		324.00000 
 43692.65567		 954.00688			42738.64880		229.54400		875.00000 
 43692.65567		 305.27265			43387.38302		69.63800		324.00000 
 43692.65567		 954.00688			42738.64880		229.54400		875.00000 
 43692.65567		 305.27265			43387.38302		69.63800		324.00000 
 43692.65567		 954.00688			42738.64880		229.54400		875.00000 
 43692.65567		 305.27265			43387.38302		69.63800		324.00000 
 43692.65567		 954.00688			42738.64880		229.54400		875.00000 
 43692.65567		 305.27265			43387.38302		69.63800		324.00000 
 43692.65567		 954.00688			42738.64880		229.54400		875.00000 
 43692.65567		 305.27265			43387.38302		69.63800		324.00000 
 43692.65567		 954.00688			42738.64880		229.54400		875.00000 
 43692.65567		 305.27265			43387.38302		69.63800		324.00000 
 43692.65567		 954.00688			42738.64880		229.54400		875.00000 
 43692.65567		 305.27265			43387.38302		69.63800		324.00000 
 43692.65567		 954.00688			42738.64880		229.54400		875.00000 
 43692.65567		 305.27265			43387.38302		69.63800		324.00000 
 43692.65567		 954.00688			42738.64880		229.54400		875.00000 
 43692.65567		 305.27265			43387.38302		69.63800		324.00000 
 43692.65567		 954.00688			42738.64880		229.54400		875.00000 
 43692.65567		 305.27265			43387.38302		69.63800		324.00000 
 43692.65567		 954.00688			42738.64880		229.54400		875.00000 
 43692.65567		 305.27265			43387.38302		69.63800		324.00000 
 43692.65567		 954.00688			42738.64880		229.54400		875.00000 
 43692.65567		 305.27265			43387.38302		69.63800		324.00000 
 43692.65567		 954.00688			42738.64880		229.54400		875.00000 
 43692.65567		 305.27265			43387.38302		69.63800		324.00000 
 43692.65567		 954.00688			42738.64880		229.54400		875.00000 
 43692.65567		 305.27265			43387.38302		69.63800		324.00000 
 43692.65567		 954.00688			42738.64880		229.54400		875.00000 
 43692.65567		 305.27265			43387.38302		69.63800		324.00000 
 43692.65567		 954.00688			42738.64880		229.54400		875.00000 
 43692.65567		 305.27265			43387.38302		69.63800		324.00000 
 43692.65567		 954.00688			42738.64880		229.54400		875.00000 
 43692.65567		 305.27265			43387.38302		69.63800		324.00000 
 43692.65567		 954.00688			42738.64880		229.54400		875.00000 
 43692.65567		 305.27265			43387.38302		69.63800		324.00000 
 43692.65567		 954.00688			42738.64880		229.54400		875.00000 
 43692.65567		 305.27265			43387.38302		69.63800		324.00000 
 43692.65567		 954.00688			42738.64880		229.54400		875.00000 
 43692.65567		 305.27265			43387.38302		69.63800		324.00000 
 43692.65567		 954.00688			42738.64880		229.54400		875.00000 
 43692.65567		 305.27265			43387.38302		69.63800		324.00000 
 43692.65567		 954.00688			42738.64880		229.54400		875.00000 
 43692.65567		 305.27265			43387.38302		69.63800		324.00000 
 43692.65567		 954.00688			42738.64880		228.94600		875.00000 
 43692.65567		 305.27265			43387.38302		69.63800		324.00000 
 43692.65567		 954.00688			42738.64880		228.94600		875.00000 
 43692.65567		 305.27265			43387.38302		69.63800		324.00000 
 43692.65567		 954.00688			42738.64880		228.94600		875.00000 
 43692.65567		 305.27265			43387.38302		69.63800		324.00000 
 43692.65567		 954.00688			42738.64880		228.94600		875.00000 
 43692.65567		 305.27265			43387.38302		69.63800		324.00000 
 43692.65567		 954.00688			42738.64880		228.94600		875.00000 
 43692.65567		 305.27265			43387.38302		69.63800		324.00000 
 43692.65567		 954.00688			42738.64880		228.94600		875.00000 
 43692.65567		 305.27265			43387.38302		69.63800		324.00000 
 43692.65567		 954.00688			42738.64880		228.94600		875.00000 
 43692.65567		 305.27265			43387.38302		69.63800		324.00000 
 43692.65567		 954.00688			42738.64880		228.94600		875.00000 
 43692.65567		 305.27265			43387.38302		69.63800		324.00000 
 43692.65567		 954.00688			42738.64880		228.94600		875.00000 
 43692.65567		 305.27265			43387.38302		69.63800		324.00000 
 43692.65567		 954.00688			42738.64880		228.94600		875.00000 
 43692.65567		 305.27265			43387.38302		69.63800		324.00000 
 43692.65567		 954.00688			42738.64880		228.94600		875.00000 
 43692.65567		 305.27265			43387.38302		69.63800		324.00000 
 43692.65567		 954.00688			42738.64880		228.94600		875.00000 
 43692.65567		 305.27265			43387.38302		69.63800		324.00000 
 43692.65567		 954.00688			42738.64880		228.94600		875.00000 
 43692.65567		 305.27265			43387.38302		69.63800		324.00000 
 43692.65567		 954.00688			42738.64880		228.94600		875.00000 
 43692.65567		 305.27265			43387.38302		69.63800		324.00000 
 43692.65567		 954.00688			42738.64880		228.94600		875.00000 
 43692.65567		 305.27265			43387.38302		69.63800		324.00000 
 43692.65567		 954.00688			42738.64880		228.94600		875.00000 
 43692.65567		 305.27265			43387.38302		69.63800		324.00000 
 43692.65567		 954.00688			42738.64880		228.94600		875.00000 
 43692.65567		 305.27265			43387.38302		69.63800		324.00000 
 43692.65567		 954.00688			42738.64880		228.94600		875.00000 
 43692.65567		 305.27265			43387.38302		69.63800		324.00000 
 43692.65567		 954.00688			42738.64880		228.94600		875.00000 
 43692.65567		 305.27265			43387.38302		69.63800		324.00000 
 43692.65567		 954.00688			42738.64880		228.94600		875.00000 
 43692.65567		 305.27265			43387.38302		69.63800		324.00000 
 43692.65567		 954.00688			42738.64880		228.94600		875.00000 
 43692.65567		 305.27265			43387.38302		69.63800		324.00000 
 43692.65567		 954.00688			42738.64880		228.94600		875.00000 
 43692.65567		 305.27265			43387.38302		69.63800		324.00000 
 43692.65567		 954.00688			42738.64880		228.94600		875.00000 
 43692.65567		 305.27265			43387.38302		69.63800		324.00000 
 43692.65567		 954.00688			42738.64880		228.94600		875.00000 
 43692.65567		 305.27265			43387.38302		69.63800		324.00000 
 43692.65567		 954.00688			42738.64880		228.94600		875.00000 
 43692.65567		 305.27265			43387.38302		69.63800		324.00000 
 43692.65567		 954.00688			42738.64880		228.94600		875.00000 
 43692.65567		 305.27265			43387.38302		69.63800		324.00000 
 43692.65567		 954.00688			42738.64880		228.94600		875.00000 
 43692.65567		 305.27265			43387.38302		69.63800		324.00000 
 43692.65567		 954.00688			42738.64880		228.94600		875.00000 
 43692.65567		 305.27265			43387.38302		69.63800		324.00000 
 43692.65567		 954.00688			42738.64880		228.94600		875.00000 
 43692.65567		 305.27265			43387.38302		69.63800		324.00000 
 43692.65567		 954.00688			42738.64880		228.94600		875.00000 
 43692.65567		 305.27265			43387.38302		69.63800		324.00000 
 43692.65567		 954.00688			42738.64880		228.94600		875.00000 
 43692.65567		 305.27265			43387.38302		69.63800		324.00000 
 43692.65567		 954.00688			42738.64880		228.94600		875.00000 
 43692.65567		 305.27265			43387.38302		69.63800		324.00000 
 43692.65567		 954.00688			42738.64880		228.94600		875.00000 
 43692.65567		 305.27265			43387.38302		69.63800		324.00000 
 43692.65567		 954.00688			42738.64880		228.94600		875.00000 
 43692.65567		 305.27265			43387.38302		69.63800		324.00000 
 43692.65567		 954.00688			42738.64880		228.94600		875.00000 
 43692.65567		 305.27265			43387.38302		69.63800		324.00000 
 43692.65567		 954.00688			42738.64880		228.94600		875.00000 
 43692.65567		 305.27265			43387.38302		69.63800		324.00000 
 43692.65567		 954.00688			42738.64880		228.94600		875.00000 
 43692.65567		 305.27265			43387.38302		69.63800		324.00000 
 43692.65567		 954.00688			42738.64880		228.94600		875.00000 
 43692.65567		 305.27265			43387.38302		69.63800		324.00000 
 43692.65567		 954.00688			42738.64880		228.94600		875.00000 
 43692.65567		 305.27265			43387.38302		69.63800		324.00000 
 43692.65567		 954.00688			42738.64880		228.94600		875.00000 
 43692.65567		 305.27265			43387.38302		69.63800		324.00000 
 43692.65567		 954.00688			42738.64880		228.94600		875.00000 
 43692.65567		 305.27265			43387.38302		69.63800		324.00000 
 43692.65567		 954.00688			42738.64880		228.94600		875.00000 
 43692.65567		 305.27265			43387.38302		69.63800		324.00000 
 43692.65567		 954.00688			42738.64880		228.94600		875.00000 
 43692.65567		 305.27265			43387.38302		69.63800		324.00000 
 43692.65567		 954.00688			42738.64880		228.94600		875.00000 
 43692.65567		 305.27265			43387.38302		69.63800		324.00000 
 43692.65567		 954.00688			42738.64880		228.94600		875.00000 
 43692.65567		 305.27265			43387.38302		69.63800		324.00000 
 43692.65567		 954.00688			42738.64880		228.94600		875.00000 
 43692.65567		 305.27265			43387.38302		69.63800		324.00000 
 43692.65567		 954.00688			42738.64880		228.94600		875.00000 
 43692.65567		 305.27265			43387.38302		69.63800		324.00000 
 43692.65567		 954.00688			42738.64880		228.94600		875.00000 
 43692.65567		 305.27265			43387.38302		69.63800		324.00000 
 43692.65567		 954.00688			42738.64880		228.94600		875.00000 
 43692.65567		 305.27265			43387.38302		69.63800		324.00000 
 43692.65567		 954.00688			42738.64880		228.94600		875.00000 
 43692.65567		 305.27265			43387.38302		69.63800		324.00000 
 43692.65567		 954.00688			42738.64880		228.94600		875.00000 
 43692.65567		 305.27265			43387.38302		69.63800		324.00000 
 43692.65567		 954.00688			42738.64880		228.94600		875.00000 
 43692.65567		 305.27265			43387.38302		69.63800		324.00000 
 43692.65567		 954.00688			42738.64880		228.94600		875.00000 
 43692.65567		 305.27265			43387.38302		69.63800		324.00000 
 43692.65567		 954.00688			42738.64880		228.94600		875.00000 
 43692.65567		 305.27265			43387.38302		69.63800		324.00000 
 43692.65567		 954.00688			42738.64880		228.94600		875.00000 
 43692.65567		 305.27265			43387.38302		69.63800		324.00000 
 43692.65567		 954.00688			42738.64880		228.94600		875.00000 
 43692.65567		 305.27265			43387.38302		69.63800		324.00000 
 43692.65567		 954.00688			42738.64880		228.94600		875.00000 
 43692.65567		 305.27265			43387.38302		69.63800		324.00000 
 43692.65567		 954.00688			42738.64880		228.94600		875.00000 
 43692.65567		 305.27265			43387.38302		69.63800		324.00000 
 43692.65567		 954.00688			42738.64880		228.94600		875.00000 
 43692.65567		 305.27265			43387.38302		69.63800		324.00000 
 43692.65567		 954.00688			42738.64880		228.94600		875.00000 
 43692.65567		 305.27265			43387.38302		69.63800		324.00000 
 43692.65567		 954.00688			42738.64880		228.94600		875.00000 
 43692.65567		 305.27265			43387.38302		69.63800		324.00000 
 43692.65567		 954.00688			42738.64880		228.94600		875.00000 
 43692.65567		 305.27265			43387.38302		69.63800		324.00000 
 43692.65567		 954.00688			42738.64880		228.94600		875.00000 
 43692.65567		 305.27265			43387.38302		69.63800		324.00000 
 43692.65567		 954.00688			42738.64880		228.94600		875.00000 
 43692.65567		 305.27265			43387.38302		69.63800		324.00000 
 43692.65567		 954.00688			42738.64880		229.54400		875.00000 
 43692.65567		 305.27265			43387.38302		69.63800		324.00000 
 43692.65567		 954.00688			42738.64880		229.54400		875.00000 
 43692.65567		 305.27265			43387.38302		69.63800		324.00000 
 43692.65567		 954.00688			42738.64880		229.54400		875.00000 
 43692.65567		 305.27265			43387.38302		69.63800		324.00000 
 43692.65567		 954.00688			42738.64880		229.54400		875.00000 
 43692.65567		 305.27265			43387.38302		69.63800		324.00000 
 43692.65567		 954.00688			42738.64880		229.54400		875.00000 
 43692.65567		 305.27265			43387.38302		69.63800		324.00000 
 43692.65567		 954.00688			42738.64880		229.54400		875.00000 
 43692.65567		 305.27265			43387.38302		69.63800		324.00000 
 43692.65567		 954.00688			42738.64880		229.54400		875.00000 
 43692.65567		 305.27265			43387.38302		69.63800		324.00000 
 43692.65567		 954.00688			42738.64880		229.54400		875.00000 
 43692.65567		 305.27265			43387.38302		69.63800		324.00000 
 43692.65567		 954.00688			42738.64880		229.54400		875.00000 
 43692.65567		 305.27265			43387.38302		69.63800		324.00000 
 43692.65567		 954.00688			42738.64880		229.54400		875.00000 
 43692.65567		 305.27265			43387.38302		69.63800		324.00000 
 43692.65567		 954.00688			42738.64880		229.54400		875.00000 
 43692.65567		 305.27265			43387.38302		69.63800		324.00000 
 43692.65567		 954.00688			42738.64880		229.54400		875.00000 
 43692.65567		 305.27265			43387.38302		69.63800		324.00000 
 43692.65567		 954.00688			42738.64880		229.54400		875.00000 
 43692.65567		 305.27265			43387.38302		69.63800		324.00000 
 43692.65567		 954.00688			42738.64880		229.54400		875.00000 
 43692.65567		 305.27265			43387.38302		69.63800		324.00000 
 43692.65567		 954.00688			42738.64880		229.54400		875.00000 
 43692.65567		 305.27265			43387.38302		69.63800		324.00000 
 43692.65567		 954.00688			42738.64880		229.54400		875.00000 
 43692.65567		 305.27265			43387.38302		69.63800		324.00000 
 43692.65567		 954.00688			42738.64880		229.54400		875.00000 
 43692.65567		 305.27265			43387.38302		69.63800		324.00000 
 43692.65567		 954.00688			42738.64880		229.54400		875.00000 
 43692.65567		 305.27265			43387.38302		69.63800		324.00000 
 43692.65567		 954.00688			42738.64880		229.54400		875.00000 
 43692.65567		 305.27265			43387.38302		69.63800		324.00000 
 43692.65567		 954.00688			42738.64880		229.54400		875.00000 
 43692.65567		 305.27265			43387.38302		69.63800		324.00000 
 43692.65567		 954.00688			42738.64880		229.54400		875.00000 
 43692.65567		 305.27265			43387.38302		69.63800		324.00000 
 43692.65567		 954.00688			42738.64880		229.54400		875.00000 
 43692.65567		 305.27265			43387.38302		69.63800		324.00000 
 43692.65567		 954.00688			42738.64880		229.54400		875.00000 
 43692.65567		 305.27265			43387.38302		69.63800		324.00000 
 43692.65567		 954.00688			42738.64880		229.54400		875.00000 
 43692.65567		 305.27265			43387.38302		69.63800		324.00000 
 43692.65567		 954.00688			42738.64880		229.54400		875.00000 
 43692.65567		 305.27265			43387.38302		69.63800		324.00000 
 43692.65567		 954.00688			42738.64880		229.54400		875.00000 
 43692.65567		 305.27265			43387.38302		69.63800		324.00000 
 43692.65567		 954.00688			42738.64880		229.54400		875.00000 
 43692.65567		 305.27265			43387.38302		69.63800		324.00000 
 43692.65567		 954.00688			42738.64880		229.54400		875.00000 
 43692.65567		 305.27265			43387.38302		69.63800		324.00000 
 43692.65567		 954.00688			42738.64880		229.54400		875.00000 
 43692.65567		 305.27265			43387.38302		69.63800		324.00000 
 43692.65567		 954.00688			42738.64880		229.54400		875.00000 
 43692.65567		 305.27265			43387.38302		69.63800		324.00000 
 43692.65567		 954.00688			42738.64880		229.54400		875.00000 
 43692.65567		 305.27265			43387.38302		69.63800		324.00000 
 43692.65567		 954.00688			42738.64880		229.54400		875.00000 
 43692.65567		 305.27265			43387.38302		69.63800		324.00000 
 43692.65567		 954.00688			42738.64880		229.54400		875.00000 
 43692.65567		 305.27265			43387.38302		69.63800		324.00000 
 43692.65567		 954.00688			42738.64880		229.54400		875.00000 
 43692.65567		 305.27265			43387.38302		69.63800		324.00000 
 43692.65567		 954.00688			42738.64880		229.54400		875.00000 
 43692.65567		 305.27265			43387.38302		69.63800		324.00000 
 43692.65567		 954.00688			42738.64880		229.54400		875.00000 
 43692.65567		 305.27265			43387.38302		69.63800		324.00000 
 43692.65567		 954.00688			42738.64880		229.54400		875.00000 
 43692.65567		 305.27265			43387.38302		69.63800		324.00000 
 43692.65567		 954.00688			42738.64880		229.54400		875.00000 
 43692.65567		 305.27265			43387.38302		69.63800		324.00000 
 43692.65567		 954.00688			42738.64880		229.54400		875.00000 
 43692.65567		 305.27265			43387.38302		69.63800		324.00000 
 43692.65567		 954.00688			42738.64880		229.54400		875.00000 
 43692.65567		 305.27265			43387.38302		69.63800		324.00000 
 43692.65567		 954.00688			42738.64880		229.54400		875.00000 
 43692.65567		 305.27265			43387.38302		69.63800		324.00000 
 43692.65567		 954.00688			42738.64880		229.54400		875.00000 
 43692.65567		 305.27265			43387.38302		69.63800		324.00000 
 43692.65567		 954.00688			42738.64880		229.54400		875.00000 
 43692.65567		 305.27265			43387.38302		69.63800		324.00000 
 43692.65567		 954.00688			42738.64880		229.54400		875.00000 
 43692.65567		 305.27265			43387.38302		69.63800		324.00000 
 43692.65567		 954.00688			42738.64880		229.54400		875.00000 
 43692.65567		 305.27265			43387.38302		69.63800		324.00000 
 43692.65567		 954.00688			42738.64880		229.54400		875.00000 
 43692.65567		 305.27265			43387.38302		69.63800		324.00000 
 43692.65567		 954.00688			42738.64880		229.54400		875.00000 
 43692.65567		 305.27265			43387.38302		69.63800		324.00000 
 43692.65567		 954.00688			42738.64880		229.54400		875.00000 
 43692.65567		 305.27265			43387.38302		69.63800		324.00000 
 43692.65567		 954.00688			42738.64880		229.54400		875.00000 
 43692.65567		 305.27265			43387.38302		69.63800		324.00000 
 43692.65567		 954.00688			42738.64880		229.54400		875.00000 
 43692.65567		 305.27265			43387.38302		69.63800		324.00000 
 43692.65567		 954.00688			42738.64880		229.54400		875.00000 
 43692.65567		 305.27265			43387.38302		69.63800		324.00000 
 43692.65567		 954.00688			42738.64880		229.54400		875.00000 
 43692.65567		 305.27265			43387.38302		69.63800		324.00000 
 43692.65567		 954.00688			42738.64880		229.54400		875.00000 
 43692.65567		 305.27265			43387.38302		69.63800		324.00000 
 43692.65567		 954.00688			42738.64880		229.54400		875.00000 
 43692.65567		 305.27265			43387.38302		69.63800		324.00000 
 43692.65567		 954.00688			42738.64880		229.54400		875.00000 
 43692.65567		 305.27265			43387.38302		69.63800		324.00000 
 43692.65567		 954.00688			42738.64880		229.54400		875.00000 
 43692.65567		 305.27265			43387.38302		69.63800		324.00000 
 43692.65567		 954.00688			42738.64880		229.54400		875.00000 
 43692.65567		 305.27265			43387.38302		69.63800		324.00000 
 43692.65567		 954.00688			42738.64880		229.54400		875.00000 
 43692.65567		 305.27265			43387.38302		69.63800		324.00000 
 43692.65567		 954.00688			42738.64880		229.54400		875.00000 
 43692.65567		 305.27265			43387.38302		69.63800		324.00000 
 43692.65567		 954.00688			42738.64880		229.54400		875.00000 
 43692.65567		 305.27265			43387.38302		69.63800		324.00000 
 43692.65567		 954.00688			42738.64880		229.54400		875.00000 
 43692.65567		 305.27265			43387.38302		69.63800		324.00000 
 43692.65567		 954.00688			42738.64880		229.54400		875.00000 
 43692.65567		 305.27265			43387.38302		69.63800		324.00000 
 43692.65567		 954.00688			42738.64880		229.54400		875.00000 
 43692.65567		 305.27265			43387.38302		69.63800		324.00000 
 43692.65567		 954.00688			42738.64880		229.54400		875.00000 
 43692.65567		 305.27265			43387.38302		69.63800		324.00000 
 43692.65567		 954.00688			42738.64880		229.54400		875.00000 
 43692.65567		 305.27265			43387.38302		69.63800		324.00000 
 43692.65567		 954.00688			42738.64880		229.54400		875.00000 
 43692.65567		 305.27265			43387.38302		69.63800		324.00000 
 43692.65567		 954.00688			42738.64880		229.54400		875.00000 
 43692.65567		 305.27265			43387.38302		69.63800		324.00000 
 43692.65567		 954.00688			42738.64880		229.54400		875.00000 
 43692.65567		 305.27265			43387.38302		69.63800		324.00000 
 43692.65567		 954.00688			42738.64880		229.54400		875.00000 
 43692.65567		 305.27265			43387.38302		69.63800		324.00000 
 43692.65567		 954.00688			42738.64880		229.54400		875.00000 
 43692.65567		 305.27265			43387.38302		69.63800		324.00000 
 43692.65567		 954.00688			42738.64880		229.54400		875.00000 
 43692.65567		 305.27265			43387.38302		69.63800		324.00000 
 43692.65567		 954.00688			42738.64880		229.54400		875.00000 
 43692.65567		 305.27265			43387.38302		69.63800		324.00000 
 43692.65567		 954.00688			42738.64880		229.54400		875.00000 
 43692.65567		 305.27265			43387.38302		69.63800		324.00000 
 43692.65567		 954.00688			42738.64880		229.54400		875.00000 
 43692.65567		 305.27265			43387.38302		69.63800		324.00000 
 43692.65567		 954.00688			42738.64880		229.54400		875.00000 
 43692.65567		 305.27265			43387.38302		69.63800		324.00000 
 43692.65567		 954.00688			42738.64880		229.54400		875.00000 
 43692.65567		 305.27265			43387.38302		69.63800		324.00000 
 43692.65567		 954.00688			42738.64880		229.54400		875.00000 
 43692.65567		 305.27265			43387.38302		69.63800		324.00000 
 43692.65567		 954.00688			42738.64880		229.54400		875.00000 
 43692.65567		 305.27265			43387.38302		69.63800		324.00000 
 43692.65567		 954.00688			42738.64880		229.54400		875.00000 
 43692.65567		 305.27265			43387.38302		69.63800		324.00000 
 43692.65567		 954.00688			42738.64880		229.54400		875.00000 
 43692.65567		 305.27265			43387.38302		69.63800		324.00000 
 43692.65567		 954.00688			42738.64880		229.54400		875.00000 
 43692.65567		 305.27265			43387.38302		69.63800		324.00000 
 43692.65567		 954.00688			42738.64880		229.54400		875.00000 
 43692.65567		 305.27265			43387.38302		69.63800		324.00000 
 43692.65567		 954.00688			42738.64880		229.54400		875.00000 
 43692.65567		 305.27265			43387.38302		69.63800		324.00000 
 43692.65567		 954.00688			42738.64880		229.54400		875.00000 
 43692.65567		 305.27265			43387.38302		69.63800		324.00000 
 43692.65567		 954.00688			42738.64880		229.54400		875.00000 
 43692.65567		 305.27265			43387.38302		69.63800		324.00000 
 43692.65567		 954.00688			42738.64880		229.54400		875.00000 
 43692.65567		 305.27265			43387.38302		69.63800		324.00000 
 43692.65567		 954.00688			42738.64880		229.54400		875.00000 
 43692.65567		 305.27265			43387.38302		69.63800		324.00000 
 43692.65567		 954.00688			42738.64880		229.54400		875.00000 
 43692.65567		 305.27265			43387.38302		69.63800		324.00000 
 43692.65567		 954.00688			42738.64880		229.54400		875.00000 
 43692.65567		 305.27265			43387.38302		69.63800		324.00000 
 43692.65567		 954.00688			42738.64880		229.54400		875.00000 
 43692.65567		 305.27265			43387.38302		69.63800		324.00000 
 43692.65567		 954.00688			42738.64880		229.54400		875.00000 
 43692.65567		 305.27265			43387.38302		69.63800		324.00000 
 43692.65567		 954.00688			42738.64880		229.54400		875.00000 
 43692.65567		 305.27265			43387.38302		69.63800		324.00000 
 43692.65567		 954.00688			42738.64880		229.54400		875.00000 
 43692.65567		 305.27265			43387.38302		69.63800		324.00000 
 43692.65567		 954.00688			42738.64880		229.54400		875.00000 
 43692.65567		 305.27265			43387.38302		69.63800		324.00000 
 43692.65567		 954.00688			42738.64880		229.54400		875.00000 
 43692.65567		 305.27265			43387.38302		69.63800		324.00000 
 43692.65567		 954.00688			42738.64880		229.54400		875.00000 
 43692.65567		 305.27265			43387.38302		69.63800		324.00000 
 43692.65567		 954.00688			42738.64880		229.54400		875.00000 
 43692.65567		 305.27265			43387.38302		69.63800		324.00000 
 43692.65567		 954.00688			42738.64880		229.54400		875.00000 
 43692.65567		 305.27265			43387.38302		69.63800		324.00000 
 43692.65567		 954.00688			42738.64880		229.54400		875.00000 
 43692.65567		 305.27265			43387.38302		69.63800		324.00000 
 43692.65567		 954.00688			42738.64880		229.54400		875.00000 
 43692.65567		 305.27265			43387.38302		69.63800		324.00000 
 43692.65567		 954.00688			42738.64880		229.54400		875.00000 
 43692.65567		 305.27265			43387.38302		69.63800		324.00000 
 43692.65567		 954.00688			42738.64880		229.54400		875.00000 
 43692.65567		 305.27265			43387.38302		69.63800		324.00000 
 43692.65567		 954.00688			42738.64880		229.54400		875.00000 
 43692.65567		 305.27265			43387.38302		69.63800		324.00000 
 43692.65567		 954.00688			42738.64880		229.54400		875.00000 
 43692.65567		 305.27265			43387.38302		69.63800		324.00000 
 43692.65567		 954.00688			42738.64880		229.54400		875.00000 
 43692.65567		 305.27265			43387.38302		69.63800		324.00000 
 43692.65567		 954.00688			42738.64880		229.54400		875.00000 
 43692.65567		 305.27265			43387.38302		69.63800		324.00000 
 43692.65567		 954.00688			42738.64880		229.54400		875.00000 
 43692.65567		 305.27265			43387.38302		69.63800		324.00000 
 43692.65567		 954.00688			42738.64880		229.54400		875.00000 
 43692.65567		 305.27265			43387.38302		69.63800		324.00000 
 43692.65567		 954.00688			42738.64880		229.54400		875.00000 
 43692.65567		 305.27265			43387.38302		69.63800		324.00000 
 43692.65567		 954.00688			42738.64880		229.54400		875.00000 
 43692.65567		 305.27265			43387.38302		69.63800		324.00000 
 43692.65567		 954.00688			42738.64880		229.54400		875.00000 
 43692.65567		 305.27265			43387.38302		69.63800		324.00000 
 43692.65567		 954.00688			42738.64880		229.54400		875.00000 
 43692.65567		 305.27265			43387.38302		69.63800		324.00000 
 43692.65567		 954.00688			42738.64880		229.54400		875.00000 
 43692.65567		 305.27265			43387.38302		69.63800		324.00000 
 43692.65567		 954.00688			42738.64880		229.54400		875.00000 
 43692.65567		 305.27265			43387.38302		69.63800		324.00000 
 43692.65567		 954.00688			42738.64880		229.54400		875.00000 
 43692.65567		 305.27265			43387.38302		69.63800		324.00000 
 43692.65567		 954.00688			42738.64880		229.54400		875.00000 
 43692.65567		 305.27265			43387.38302		69.63800		324.00000 
 43692.65567		 954.00688			42738.64880		229.54400		875.00000 
 43692.65567		 305.27265			43387.38302		69.63800		324.00000 
 43692.65567		 954.00688			42738.64880		229.54400		875.00000 
 43692.65567		 305.27265			43387.38302		69.63800		324.00000 
 43692.65567		 954.00688			42738.64880		229.54400		875.00000 
 43692.65567		 305.27265			43387.38302		69.63800		324.00000 
 43692.65567		 954.00688			42738.64880		229.54400		875.00000 
 43692.65567		 305.27265			43387.38302		69.63800		324.00000 
 43692.65567		 954.00688			42738.64880		229.54400		875.00000 
 43692.65567		 305.27265			43387.38302		69.63800		324.00000 
 43692.65567		 954.00688			42738.64880		229.54400		875.00000 
 43692.65567		 305.27265			43387.38302		69.63800		324.00000 
 43692.65567		 954.00688			42738.64880		229.54400		875.00000 
 43692.65567		 305.27265			43387.38302		69.63800		324.00000 
 43692.65567		 954.00688			42738.64880		229.54400		875.00000 
 43692.65567		 305.27265			43387.38302		69.63800		324.00000 
 43692.65567		 954.00688			42738.64880		229.54400		875.00000 
 43692.65567		 305.27265			43387.38302		69.63800		324.00000 
 43692.65567		 954.00688			42738.64880		229.54400		875.00000 
 43692.65567		 305.27265			43387.38302		69.63800		324.00000 
 43692.65567		 954.00688			42738.64880		229.54400		875.00000 
 43692.65567		 305.27265			43387.38302		69.63800		324.00000 
 43692.65567		 954.00688			42738.64880		229.54400		875.00000 
 43692.65567		 305.27265			43387.38302		69.63800		324.00000 
 43692.65567		 954.00688			42738.64880		229.54400		875.00000 
 43692.65567		 305.27265			43387.38302		69.63800		324.00000 
 43692.65567		 954.00688			42738.64880		229.54400		875.00000 
 43692.65567		 305.27265			43387.38302		69.63800		324.00000 
 43692.65567		 954.00688			42738.64880		229.54400		875.00000 
 43692.65567		 305.27265			43387.38302		69.63800		324.00000 
 43692.65567		 954.00688			42738.64880		229.54400		875.00000 
 43692.65567		 305.27265			43387.38302		69.63800		324.00000 
 43692.65567		 954.00688			42738.64880		229.54400		875.00000 
 43692.65567		 305.27265			43387.38302		69.63800		324.00000 
 43692.65567		 954.00688			42738.64880		229.54400		875.00000 
 43692.65567		 305.27265			43387.38302		69.63800		324.00000 
 43692.65567		 954.00688			42738.64880		229.54400		875.00000 
 43692.65567		 305.27265			43387.38302		69.63800		324.00000 
 43692.65567		 954.00688			42738.64880		229.54400		875.00000 
 43692.65567		 305.27265			43387.38302		69.63800		324.00000 
 43692.65567		 954.00688			42738.64880		229.54400		875.00000 
 43692.65567		 305.27265			43387.38302		69.63800		324.00000 
 43692.65567		 954.00688			42738.64880		229.54400		875.00000 
 43692.65567		 305.27265			43387.38302		69.63800		324.00000 
 43692.65567		 954.00688			42738.64880		229.54400		875.00000 
 43692.65567		 305.27265			43387.38302		69.63800		324.00000 
 43692.65567		 954.00688			42738.64880		229.54400		875.00000 
 43692.65567		 305.27265			43387.38302		69.63800		324.00000 
 43692.65567		 954.00688			42738.64880		229.54400		875.00000 
 43692.65567		 305.27265			43387.38302		69.63800		324.00000 
 43692.65567		 954.00688			42738.64880		229.54400		875.00000 
 43692.65567		 305.27265			43387.38302		69.63800		324.00000 
 43692.65567		 954.00688			42738.64880		229.54400		875.00000 
 43692.65567		 305.27265			43387.38302		69.63800		324.00000 
 43692.65567		 954.00688			42738.64880		229.54400		875.00000 
 43692.65567		 305.27265			43387.38302		69.63800		324.00000 
 43692.65567		 954.00688			42738.64880		229.54400		875.00000 
 43692.65567		 305.27265			43387.38302		69.63800		324.00000 
 43692.65567		 954.00688			42738.64880		229.54400		875.00000 
 43692.65567		 305.27265			43387.38302		69.63800		324.00000 
 43692.65567		 954.00688			42738.64880		229.54400		875.00000 
 43692.65567		 305.27265			43387.38302		69.63800		324.00000 
 43692.65567		 954.00688			42738.64880		229.54400		875.00000 
 43692.65567		 305.27265			43387.38302		69.63800		324.00000 
 43692.65567		 954.00688			42738.64880		229.54400		875.00000 
 43692.65567		 305.27265			43387.38302		69.63800		324.00000 
 43692.65567		 954.00688			42738.64880		229.54400		875.00000 
 43692.65567		 305.27265			43387.38302		69.63800		324.00000 
 43692.65567		 954.00688			42738.64880		229.54400		875.00000 
 43692.65567		 305.27265			43387.38302		69.63800		324.00000 
 43692.65567		 954.00688			42738.64880		229.54400		875.00000 
 43692.65567		 305.27265			43387.38302		69.63800		324.00000 
 43692.65567		 954.00688			42738.64880		229.54400		875.00000 
 43692.65567		 305.27265			43387.38302		69.63800		324.00000 
 43692.65567		 954.00688			42738.64880		229.54400		875.00000 
 43692.65567		 305.27265			43387.38302		69.63800		324.00000 
 43692.65567		 954.00688			42738.64880		229.54400		875.00000 
 43692.65567		 305.27265			43387.38302		69.63800		324.00000 
 43692.65567		 954.00688			42738.64880		229.54400		875.00000 
 43692.65567		 305.27265			43387.38302		69.63800		324.00000 
 43692.65567		 954.00688			42738.64880		229.54400		875.00000 
 43692.65567		 305.27265			43387.38302		69.63800		324.00000 
 43692.65567		 954.00688			42738.64880		229.54400		875.00000 
 43692.65567		 305.27265			43387.38302		69.63800		324.00000 
 43692.65567		 954.00688			42738.64880		229.54400		875.00000 
 43692.65567		 305.27265			43387.38302		69.63800		324.00000 
 43692.65567		 954.00688			42738.64880		229.54400		875.00000 
 43692.65567		 305.27265			43387.38302		69.63800		324.00000 
 43692.65567		 954.00688			42738.64880		229.54400		875.00000 
 43692.65567		 305.27265			43387.38302		69.63800		324.00000 
 43692.65567		 954.00688			42738.64880		229.54400		875.00000 
 43692.65567		 305.27265			43387.38302		69.63800		324.00000 
 43692.65567		 954.00688			42738.64880		229.54400		875.00000 
 43692.65567		 305.27265			43387.38302		69.63800		324.00000 
 43692.65567		 954.00688			42738.64880		229.54400		875.00000 
 43692.65567		 305.27265			43387.38302		69.63800		324.00000 
 43692.65567		 954.00688			42738.64880		229.54400		875.00000 
 43692.65567		 305.27265			43387.38302		69.63800		324.00000 
 43692.65567		 954.00688			42738.64880		229.54400		875.00000 
 43692.65567		 305.27265			43387.38302		69.63800		324.00000 
 43692.65567		 954.00688			42738.64880		229.54400		875.00000 
 43692.65567		 305.27265			43387.38302		69.63800		324.00000 
 43692.65567		 954.00688			42738.64880		229.54400		875.00000 
 43692.65567		 305.27265			43387.38302		69.63800		324.00000 
 43692.65567		 954.00688			42738.64880		229.54400		875.00000 
 43692.65567		 305.27265			43387.38302		69.63800		324.00000 
 43692.65567		 954.00688			42738.64880		229.54400		875.00000 
 43692.65567		 305.27265			43387.38302		69.63800		324.00000 
 43692.65567		 954.00688			42738.64880		229.54400		875.00000 
 43692.65567		 305.27265			43387.38302		69.63800		324.00000 
 43692.65567		 954.00688			42738.64880		229.54400		875.00000 
 43692.65567		 305.27265			43387.38302		69.63800		324.00000 
 43692.65567		 954.00688			42738.64880		229.54400		875.00000 
 43692.65567		 305.27265			43387.38302		69.63800		324.00000 
 43692.65567		 954.00688			42738.64880		229.54400		875.00000 
 43692.65567		 305.27265			43387.38302		69.63800		324.00000 
 43692.65567		 954.00688			42738.64880		229.54400		875.00000 
 43692.65567		 305.27265			43387.38302		69.63800		324.00000 
 43692.65567		 954.00688			42738.64880		229.54400		875.00000 
 43692.65567		 305.27265			43387.38302		69.63800		324.00000 
 43692.65567		 954.00688			42738.64880		229.54400		875.00000 
 43692.65567		 305.27265			43387.38302		69.63800		324.00000 
 43692.65567		 954.00688			42738.64880		229.54400		875.00000 
 43692.65567		 305.27265			43387.38302		69.63800		324.00000 
 43692.65567		 954.00688			42738.64880		229.54400		875.00000 
 43692.65567		 305.27265			43387.38302		69.63800		324.00000 
 43692.65567		 954.00688			42738.64880		229.54400		875.00000 
 43692.65567		 305.27265			43387.38302		69.63800		324.00000 
 43692.65567		 954.00688			42738.64880		229.54400		875.00000 
 43692.65567		 305.27265			43387.38302		69.63800		324.00000 
 43692.65567		 954.00688			42738.64880		229.54400		875.00000 
 43692.65567		 305.27265			43387.38302		69.63800		324.00000 
 43692.65567		 954.00688			42738.64880		229.54400		875.00000 
 43692.65567		 305.27265			43387.38302		69.63800		324.00000 
 43692.65567		 954.00688			42738.64880		229.54400		875.00000 
 43692.65567		 305.27265			43387.38302		69.63800		324.00000 
 43692.65567		 954.00688			42738.64880		229.54400		875.00000 
 43692.65567		 305.27265			43387.38302		69.63800		324.00000 
 43692.65567		 954.00688			42738.64880		229.54400		875.00000 
 43692.65567		 305.27265			43387.38302		69.63800		324.00000 
 43692.65567		 954.00688			42738.64880		229.54400		875.00000 
 43692.65567		 305.27265			43387.38302		69.63800		324.00000 
 43692.65567		 954.00688			42738.64880		229.54400		875.00000 
 43692.65567		 305.27265			43387.38302		69.63800		324.00000 
 43692.65567		 954.00688			42738.64880		229.54400		875.00000 
 43692.65567		 305.27265			43387.38302		69.63800		324.00000 
 43692.65567		 954.00688			42738.64880		229.54400		875.00000 
 43692.65567		 305.27265			43387.38302		69.63800		324.00000 
 43692.65567		 954.00688			42738.64880		229.54400		875.00000 
 43692.65567		 305.27265			43387.38302		69.63800		324.00000 
 43692.65567		 954.00688			42738.64880		229.54400		875.00000 
 43692.65567		 305.27265			43387.38302		69.63800		324.00000 
 43692.65567		 954.00688			42738.64880		229.54400		875.00000 
 43692.65567		 305.27265			43387.38302		69.63800		324.00000 
 43692.65567		 954.00688			42738.64880		229.54400		875.00000 
 43692.65567		 305.27265			43387.38302		69.63800		324.00000 
 43692.65567		 954.00688			42738.64880		229.54400		875.00000 
 43692.65567		 305.27265			43387.38302		69.63800		324.00000 
 43692.65567		 954.00688			42738.64880		229.54400		875.00000 
 43692.65567		 305.27265			43387.38302		69.63800		324.00000 
 43692.65567		 954.00688			42738.64880		229.54400		875.00000 
 43692.65567		 305.27265			43387.38302		69.63800		324.00000 
 43692.65567		 954.00688			42738.64880		229.54400		875.00000 
 43692.65567		 305.27265			43387.38302		69.63800		324.00000 
 43692.65567		 954.00688			42738.64880		229.54400		875.00000 
 43692.65567		 305.27265			43387.38302		69.63800		324.00000 
 43692.65567		 954.00688			42738.64880		229.54400		875.00000 
 43692.65567		 305.27265			43387.38302		69.63800		324.00000 
 43692.65567		 954.00688			42738.64880		229.54400		875.00000 
 43692.65567		 305.27265			43387.38302		69.63800		324.00000 
 43692.65567		 954.00688			42738.64880		229.54400		875.00000 
 43692.65567		 305.27265			43387.38302		69.63800		324.00000 
 43692.65567		 954.00688			42738.64880		229.54400		875.00000 
 43692.65567		 305.27265			43387.38302		69.63800		324.00000 
 43692.65567		 954.00688			42738.64880		229.54400		875.00000 
 43692.65567		 305.27265			43387.38302		69.63800		324.00000 
 43692.65567		 954.00688			42738.64880		229.54400		875.00000 
 43692.65567		 305.27265			43387.38302		69.63800		324.00000 
 43692.65567		 954.00688			42738.64880		229.54400		875.00000 
 43692.65567		 305.27265			43387.38302		69.63800		324.00000 
 43692.65567		 954.00688			42738.64880		229.54400		875.00000 
 43692.65567		 305.27265			43387.38302		69.63800		324.00000 
 43692.65567		 954.00688			42738.64880		229.54400		875.00000 
 43692.65567		 305.27265			43387.38302		69.63800		324.00000 
 43692.65567		 954.00688			42738.64880		229.54400		875.00000 
 43692.65567		 305.27265			43387.38302		69.63800		324.00000 
 43692.65567		 954.00688			42738.64880		229.54400		875.00000 
 43692.65567		 305.27265			43387.38302		69.63800		324.00000 
 43692.65567		 954.00688			42738.64880		229.54400		875.00000 
 43692.65567		 305.27265			43387.38302		69.63800		324.00000 
 43692.65567		 954.00688			42738.64880		229.54400		875.00000 
 43692.65567		 305.27265			43387.38302		69.63800		324.00000 
 43692.65567		 954.00688			42738.64880		229.54400		875.00000 
 43692.65567		 305.27265			43387.38302		69.63800		324.00000 
 43692.65567		 954.00688			42738.64880		229.54400		875.00000 
 43692.65567		 305.27265			43387.38302		69.63800		324.00000 
 43692.65567		 954.00688			42738.64880		229.54400		875.00000 
 43692.65567		 305.27265			43387.38302		69.63800		324.00000 
 43692.65567		 954.00688			42738.64880		229.54400		875.00000 
 43692.65567		 305.27265			43387.38302		69.63800		324.00000 
 43692.65567		 954.00688			42738.64880		229.54400		875.00000 
 43692.65567		 305.27265			43387.38302		69.63800		324.00000 
 43692.65567		 954.00688			42738.64880		229.54400		875.00000 
 43692.65567		 305.27265			43387.38302		69.63800		324.00000 
 43692.65567		 954.00688			42738.64880		229.54400		875.00000 
 43692.65567		 305.27265			43387.38302		69.63800		324.00000 
 43692.65567		 954.00688			42738.64880		229.54400		875.00000 
 43692.65567		 305.27265			43387.38302		69.63800		324.00000 
 43692.65567		 954.00688			42738.64880		229.54400		875.00000 
 43692.65567		 305.27265			43387.38302		69.63800		324.00000 
 43692.65567		 954.00688			42738.64880		229.54400		875.00000 
 43692.65567		 305.27265			43387.38302		69.63800		324.00000 
 43692.65567		 954.00688			42738.64880		229.54400		875.00000 
 43692.65567		 305.27265			43387.38302		69.63800		324.00000 
 43692.65567		 954.00688			42738.64880		229.54400		875.00000 
 43692.65567		 305.27265			43387.38302		69.63800		324.00000 
 43692.65567		 954.00688			42738.64880		229.54400		875.00000 
 43692.65567		 305.27265			43387.38302		69.63800		324.00000 
 43692.65567		 954.00688			42738.64880		229.54400		875.00000 
 43692.65567		 305.27265			43387.38302		69.63800		324.00000 
 43692.65567		 954.00688			42738.64880		229.54400		875.00000 
 43692.65567		 305.27265			43387.38302		69.63800		324.00000 
 43692.65567		 954.00688			42738.64880		229.54400		875.00000 
 43692.65567		 305.27265			43387.38302		69.63800		324.00000 
 43692.65567		 954.00688			42738.64880		229.54400		875.00000 
 43692.65567		 305.27265			43387.38302		69.63800		324.00000 
 43692.65567		 954.00688			42738.64880		229.54400		875.00000 
 43692.65567		 305.27265			43387.38302		69.63800		324.00000 
 43692.65567		 954.00688			42738.64880		229.54400		875.00000 
 43692.65567		 305.27265			43387.38302		69.63800		324.00000 
 43692.65567		 954.00688			42738.64880		229.54400		875.00000 
 43692.65567		 305.27265			43387.38302		69.63800		324.00000 
 43692.65567		 954.00688			42738.64880		229.54400		875.00000 
 43692.65567		 305.27265			43387.38302		69.63800		324.00000 
 43692.65567		 954.00688			42738.64880		229.54400		875.00000 
 43692.65567		 305.27265			43387.38302		69.63800		324.00000 
 43692.65567		 954.00688			42738.64880		229.54400		875.00000 
 43692.65567		 305.27265			43387.38302		69.63800		324.00000 
 43692.65567		 954.00688			42738.64880		229.54400		875.00000 
 43692.65567		 305.27265			43387.38302		69.63800		324.00000 
 43692.65567		 954.00688			42738.64880		229.54400		875.00000 
 43692.65567		 305.27265			43387.38302		69.63800		324.00000 
 43692.65567		 954.00688			42738.64880		229.54400		875.00000 
 43692.65567		 305.27265			43387.38302		69.63800		324.00000 
 43692.65567		 954.00688			42738.64880		229.54400		875.00000 
 43692.65567		 305.27265			43387.38302		69.63800		324.00000 
 43692.65567		 954.00688			42738.64880		229.54400		875.00000 
 43692.65567		 305.27265			43387.38302		69.63800		324.00000 
 43692.65567		 954.00688			42738.64880		229.54400		875.00000 
 43692.65567		 305.27265			43387.38302		69.63800		324.00000 
 43692.65567		 954.00688			42738.64880		229.54400		875.00000 
 43692.65567		 305.27265			43387.38302		69.63800		324.00000 
 43692.65567		 954.00688			42738.64880		229.54400		875.00000 
 43692.65567		 305.27265			43387.38302		69.63800		324.00000 
 43692.65567		 954.00688			42738.64880		229.54400		875.00000 
 43692.65567		 305.27265			43387.38302		69.63800		324.00000 
 43692.65567		 954.00688			42738.64880		229.54400		875.00000 
 43692.65567		 305.27265			43387.38302		69.63800		324.00000 
 43692.65567		 954.00688			42738.64880		229.54400		875.00000 
 43692.65567		 305.27265			43387.38302		69.63800		324.00000 
 43692.65567		 954.00688			42738.64880		229.54400		875.00000 
 43692.65567		 305.27265			43387.38302		69.63800		324.00000 
 43692.65567		 954.00688			42738.64880		229.54400		875.00000 
 43692.65567		 305.27265			43387.38302		69.63800		324.00000 
 43692.65567		 954.00688			42738.64880		229.54400		875.00000 
 43692.65567		 305.27265			43387.38302		69.63800		324.00000 
 43692.65567		 954.00688			42738.64880		229.54400		875.00000 
 43692.65567		 305.27265			43387.38302		69.63800		324.00000 
 43692.65567		 954.00688			42738.64880		229.54400		875.00000 
 43692.65567		 305.27265			43387.38302		69.63800		324.00000 
 43692.65567		 954.00688			42738.64880		229.54400		875.00000 
 43692.65567		 305.27265			43387.38302		69.63800		324.00000 
 43692.65567		 954.00688			42738.64880		229.54400		875.00000 
 43692.65567		 305.27265			43387.38302		69.63800		324.00000 
 43692.65567		 954.00688			42738.64880		229.54400		875.00000 
 43692.65567		 305.27265			43387.38302		69.63800		324.00000 
 43692.65567		 954.00688			42738.64880		229.54400		875.00000 
 43692.65567		 305.27265			43387.38302		69.63800		324.00000 
 43692.65567		 954.00688			42738.64880		229.54400		875.00000 
 43692.65567		 305.27265			43387.38302		69.63800		324.00000 
 43692.65567		 954.00688			42738.64880		229.54400		875.00000 
 43692.65567		 305.27265			43387.38302		69.63800		324.00000 
 43692.65567		 954.00688			42738.64880		229.54400		875.00000 
 43692.65567		 305.27265			43387.38302		69.63800		324.00000 
 43692.65567		 954.00688			42738.64880		229.54400		875.00000 
 43692.65567		 305.27265			43387.38302		69.63800		324.00000 
 43692.65567		 954.00688			42738.64880		229.54400		875.00000 
 43692.65567		 305.27265			43387.38302		69.63800		324.00000 
 43692.65567		 954.00688			42738.64880		229.54400		875.00000 
 43692.65567		 305.27265			43387.38302		69.63800		324.00000 
 43692.65567		 954.00688			42738.64880		229.54400		875.00000 
 43692.65567		 305.27265			43387.38302		69.63800		324.00000 
 43692.65567		 954.00688			42738.64880		229.54400		875.00000 
 43692.65567		 305.27265			43387.38302		69.63800		324.00000 
 43692.65567		 954.00688			42738.64880		229.54400		875.00000 
 43692.65567		 305.27265			43387.38302		69.63800		324.00000 
 43692.65567		 954.00688			42738.64880		229.54400		875.00000 
 43692.65567		 305.27265			43387.38302		69.63800		324.00000 
 43692.65567		 954.00688			42738.64880		229.54400		875.00000 
 43692.65567		 305.27265			43387.38302		69.63800		324.00000 
 43692.65567		 954.00688			42738.64880		229.54400		875.00000 
 43692.65567		 305.27265			43387.38302		69.63800		324.00000 
 43692.65567		 954.00688			42738.64880		229.54400		875.00000 
 43692.65567		 305.27265			43387.38302		69.63800		324.00000 
 43692.65567		 954.00688			42738.64880		229.54400		875.00000 
 43692.65567		 305.27265			43387.38302		69.63800		324.00000 
 43692.65567		 954.00688			42738.64880		229.54400		875.00000 
 43692.65567		 305.27265			43387.38302		69.63800		324.00000 
 43692.65567		 954.00688			42738.64880		229.54400		875.00000 
 43692.65567		 305.27265			43387.38302		69.63800		324.00000 
 43692.65567		 954.00688			42738.64880		229.54400		875.00000 
 43692.65567		 305.27265			43387.38302		69.63800		324.00000 
 43692.65567		 954.00688			42738.64880		229.54400		875.00000 
 43692.65567		 305.27265			43387.38302		69.63800		324.00000 
 43692.65567		 954.00688			42738.64880		229.54400		875.00000 
 43692.65567		 305.27265			43387.38302		69.63800		324.00000 
 43692.65567		 954.00688			42738.64880		229.54400		875.00000 
 43692.65567		 305.27265			43387.38302		69.63800		324.00000 
 43692.65567		 954.00688			42738.64880		229.54400		875.00000 
 43692.65567		 305.27265			43387.38302		69.63800		324.00000 
 43692.65567		 954.00688			42738.64880		229.54400		875.00000 
 43692.65567		 305.27265			43387.38302		69.63800		324.00000 
 43692.65567		 954.00688			42738.64880		229.54400		875.00000 
 43692.65567		 305.27265			43387.38302		69.63800		324.00000 
 43692.65567		 954.00688			42738.64880		229.54400		875.00000 
 43692.65567		 305.27265			43387.38302		69.63800		324.00000 
 43692.65567		 954.00688			42738.64880		229.54400		875.00000 
 43692.65567		 305.27265			43387.38302		69.63800		324.00000 
 43692.65567		 954.00688			42738.64880		229.54400		875.00000 
 43692.65567		 305.27265			43387.38302		69.63800		324.00000 
 43692.65567		 954.00688			42738.64880		229.54400		875.00000 
 43692.65567		 305.27265			43387.38302		69.63800		324.00000 
 43692.65567		 954.00688			42738.64880		229.54400		875.00000 
 43692.65567		 305.27265			43387.38302		69.63800		324.00000 
 43692.65567		 954.00688			42738.64880		229.54400		875.00000 
 43692.65567		 305.27265			43387.38302		69.63800		324.00000 
 43692.65567		 954.00688			42738.64880		229.54400		875.00000 
 43692.65567		 305.27265			43387.38302		69.63800		324.00000 
 43692.65567		 954.00688			42738.64880		229.54400		875.00000 
 43692.65567		 305.27265			43387.38302		69.63800		324.00000 
 43692.65567		 954.00688			42738.64880		229.54400		875.00000 
 43692.65567		 305.27265			43387.38302		69.63800		324.00000 
 43692.65567		 954.00688			42738.64880		229.54400		875.00000 
 43692.65567		 305.27265			43387.38302		69.63800		324.00000 
 43692.65567		 954.00688			42738.64880		229.54400		875.00000 
 43692.65567		 305.27265			43387.38302		69.63800		324.00000 
 43692.65567		 954.00688			42738.64880		229.54400		875.00000 
 43692.65567		 305.27265			43387.38302		69.63800		324.00000 
 43692.65567		 954.00688			42738.64880		229.54400		875.00000 
 43692.65567		 305.27265			43387.38302		69.63800		324.00000 
 43692.65567		 954.00688			42738.64880		229.54400		875.00000 
 43692.65567		 305.27265			43387.38302		69.63800		324.00000 
 43692.65567		 954.00688			42738.64880		229.54400		875.00000 
 43692.65567		 305.27265			43387.38302		69.63800		324.00000 
 43692.65567		 954.00688			42738.64880		229.54400		875.00000 
 43692.65567		 305.27265			43387.38302		69.63800		324.00000 
 43692.65567		 954.00688			42738.64880		229.54400		875.00000 
 43692.65567		 305.27265			43387.38302		69.63800		324.00000 
 43692.65567		 954.00688			42738.64880		229.54400		875.00000 
 43692.65567		 305.27265			43387.38302		69.63800		324.00000 
 43692.65567		 954.00688			42738.64880		229.54400		875.00000 
 43692.65567		 305.27265			43387.38302		69.63800		324.00000 
 43692.65567		 954.00688			42738.64880		229.54400		875.00000 
 43692.65567		 305.27265			43387.38302		69.63800		324.00000 
 43692.65567		 954.00688			42738.64880		229.54400		875.00000 
 43692.65567		 305.27265			43387.38302		69.63800		324.00000 
 43692.65567		 954.00688			42738.64880		229.54400		875.00000 
 43692.65567		 305.27265			43387.38302		69.63800		324.00000 
 43692.65567		 954.00688			42738.64880		229.54400		875.00000 
 43692.65567		 305.27265			43387.38302		69.63800		324.00000 
 43692.65567		 954.00688			42738.64880		229.54400		875.00000 
 43692.65567		 305.27265			43387.38302		69.63800		324.00000 
 43692.65567		 954.00688			42738.64880		229.54400		875.00000 
 43692.65567		 305.27265			43387.38302		69.63800		324.00000 
 43692.65567		 954.00688			42738.64880		229.54400		875.00000 
 43692.65567		 305.27265			43387.38302		69.63800		324.00000 
 43692.65567		 954.00688			42738.64880		229.54400		875.00000 
 43692.65567		 305.27265			43387.38302		69.63800		324.00000 
 43692.65567		 954.00688			42738.64880		229.54400		875.00000 
 43692.65567		 305.27265			43387.38302		69.63800		324.00000 
 43692.65567		 954.00688			42738.64880		229.54400		875.00000 
 43692.65567		 305.27265			43387.38302		69.63800		324.00000 
 43692.65567		 954.00688			42738.64880		229.54400		875.00000 
 43692.65567		 305.27265			43387.38302		69.63800		324.00000 
 43692.65567		 954.00688			42738.64880		229.54400		875.00000 
 43692.65567		 305.27265			43387.38302		69.63800		324.00000 
 43692.65567		 954.00688			42738.64880		229.54400		875.00000 
 43692.65567		 305.27265			43387.38302		69.63800		324.00000 
 43692.65567		 954.00688			42738.64880		229.54400		875.00000 
 43692.65567		 305.27265			43387.38302		69.63800		324.00000 
 43692.65567		 954.00688			42738.64880		229.54400		875.00000 
 43692.65567		 305.27265			43387.38302		69.63800		324.00000 
 43692.65567		 954.00688			42738.64880		229.54400		875.00000 
 43692.65567		 305.27265			43387.38302		69.63800		324.00000 
 43692.65567		 954.00688			42738.64880		229.54400		875.00000 
 43692.65567		 305.27265			43387.38302		69.63800		324.00000 
 43692.65567		 954.00688			42738.64880		229.54400		875.00000 
 43692.65567		 305.27265			43387.38302		69.63800		324.00000 
 43692.65567		 954.00688			42738.64880		229.54400		875.00000 
 43692.65567		 305.27265			43387.38302		69.63800		324.00000 
 43692.65567		 954.00688			42738.64880		229.54400		875.00000 
 43692.65567		 305.27265			43387.38302		69.63800		324.00000 
 43692.65567		 954.00688			42738.64880		229.54400		875.00000 
 43692.65567		 305.27265			43387.38302		69.63800		324.00000 
 43692.65567		 954.00688			42738.64880		229.54400		875.00000 
 43692.65567		 305.27265			43387.38302		69.63800		324.00000 
 43692.65567		 954.00688			42738.64880		229.54400		875.00000 
 43692.65567		 305.27265			43387.38302		69.63800		324.00000 
 43692.65567		 954.00688			42738.64880		229.54400		875.00000 
 43692.65567		 305.27265			43387.38302		69.63800		324.00000 
 43692.65567		 954.00688			42738.64880		229.54400		875.00000 
 43692.65567		 305.27265			43387.38302		69.63800		324.00000 
 43692.65567		 954.00688			42738.64880		229.54400		875.00000 
 43692.65567		 305.27265			43387.38302		69.63800		324.00000 
 43692.65567		 954.00688			42738.64880		229.54400		875.00000 
 43692.65567		 305.27265			43387.38302		69.63800		324.00000 
 43692.65567		 954.00688			42738.64880		229.54400		875.00000 
 43692.65567		 305.27265			43387.38302		69.63800		324.00000 
 43692.65567		 954.00688			42738.64880		229.54400		875.00000 
 43692.65567		 305.27265			43387.38302		69.63800		324.00000 
 43692.65567		 954.00688			42738.64880		229.54400		875.00000 
 43692.65567		 305.27265			43387.38302		69.63800		324.00000 
 43692.65567		 954.00688			42738.64880		229.54400		875.00000 
 43692.65567		 305.27265			43387.38302		69.63800		324.00000 
 43692.65567		 954.00688			42738.64880		229.54400		875.00000 
 43692.65567		 305.27265			43387.38302		69.63800		324.00000 
 43692.65567		 954.00688			42738.64880		229.54400		875.00000 
 43692.65567		 305.27265			43387.38302		69.63800		324.00000 
 43692.65567		 954.00688			42738.64880		229.54400		875.00000 
 43692.65567		 305.27265			43387.38302		69.63800		324.00000 
 43692.65567		 954.00688			42738.64880		229.54400		875.00000 
 43692.65567		 305.27265			43387.38302		69.63800		324.00000 
 43692.65567		 954.00688			42738.64880		229.54400		875.00000 
 43692.65567		 305.27265			43387.38302		69.63800		324.00000 
 43692.65567		 954.00688			42738.64880		229.54400		875.00000 
 43692.65567		 305.27265			43387.38302		69.63800		324.00000 
 43692.65567		 954.00688			42738.64880		229.54400		875.00000 
 43692.65567		 305.27265			43387.38302		69.63800		324.00000 
 43692.65567		 954.00688			42738.64880		229.54400		875.00000 
 43692.65567		 305.27265			43387.38302		69.63800		324.00000 
 43692.65567		 954.00688			42738.64880		229.54400		875.00000 
 43692.65567		 305.27265			43387.38302		69.63800		324.00000 
 43692.65567		 954.00688			42738.64880		229.54400		875.00000 
 43692.65567		 305.27265			43387.38302		69.63800		324.00000 
 43692.65567		 954.00688			42738.64880		229.54400		875.00000 
 43692.65567		 305.27265			43387.38302		69.63800		324.00000 
 43692.65567		 954.00688			42738.64880		229.54400		875.00000 
 43692.65567		 305.27265			43387.38302		69.63800		324.00000 
 43692.65567		 954.00688			42738.64880		229.54400		875.00000 
 43692.65567		 305.27265			43387.38302		69.63800		324.00000 
 43692.65567		 954.00688			42738.64880		229.54400		875.00000 
 43692.65567		 305.27265			43387.38302		69.63800		324.00000 
 43692.65567		 954.00688			42738.64880		229.54400		875.00000 
 43692.65567		 305.27265			43387.38302		69.63800		324.00000 
 43692.65567		 954.00688			42738.64880		229.54400		875.00000 
 43692.65567		 305.27265			43387.38302		69.63800		324.00000 
 43692.65567		 954.00688			42738.64880		229.54400		875.00000 
 43692.65567		 305.27265			43387.38302		69.63800		324.00000 
 43692.65567		 954.00688			42738.64880		229.54400		875.00000 
 43692.65567		 305.27265			43387.38302		69.63800		324.00000 
 43692.65567		 954.00688			42738.64880		229.54400		875.00000 
 43692.65567		 305.27265			43387.38302		69.63800		324.00000 
 43692.65567		 954.00688			42738.64880		229.54400		875.00000 
 43692.65567		 305.27265			43387.38302		69.63800		324.00000 
 43692.65567		 954.00688			42738.64880		229.54400		875.00000 
 43692.65567		 305.27265			43387.38302		69.63800		324.00000 
 43692.65567		 954.00688			42738.64880		229.54400		875.00000 
 43692.65567		 305.27265			43387.38302		69.63800		324.00000 
 43692.65567		 954.00688			42738.64880		229.54400		875.00000 
 43692.65567		 305.27265			43387.38302		69.63800		324.00000 
 43692.65567		 954.00688			42738.64880		229.54400		875.00000 
 43692.65567		 305.27265			43387.38302		69.63800		324.00000 
 43692.65567		 954.00688			42738.64880		229.54400		875.00000 
 43692.65567		 305.27265			43387.38302		69.63800		324.00000 
 43692.65567		 954.00688			42738.64880		229.54400		875.00000 
 43692.65567		 305.27265			43387.38302		69.63800		324.00000 
 43692.65567		 954.00688			42738.64880		229.54400		875.00000 
 43692.65567		 305.27265			43387.38302		69.63800		324.00000 
 43692.65567		 954.00688			42738.64880		229.54400		875.00000 
 43692.65567		 305.27265			43387.38302		69.63800		324.00000 
 43692.65567		 954.00688			42738.64880		229.54400		875.00000 
 43692.65567		 305.27265			43387.38302		69.63800		324.00000 
 43692.65567		 954.00688			42738.64880		229.54400		875.00000 
 43692.65567		 305.27265			43387.38302		69.63800		324.00000 
 43692.65567		 954.00688			42738.64880		229.54400		875.00000 
 43692.65567		 305.27265			43387.38302		69.63800		324.00000 
 43692.65567		 954.00688			42738.64880		229.54400		875.00000 
 43692.65567		 305.27265			43387.38302		69.63800		324.00000 
 43692.65567		 954.00688			42738.64880		229.54400		875.00000 
 43692.65567		 305.27265			43387.38302		69.63800		324.00000 
 43692.65567		 954.00688			42738.64880		229.54400		875.00000 
 43692.65567		 305.27265			43387.38302		69.63800		324.00000 
 43692.65567		 954.00688			42738.64880		229.54400		875.00000 
 43692.65567		 305.27265			43387.38302		69.63800		324.00000 
 43692.65567		 954.00688			42738.64880		229.54400		875.00000 
 43692.65567		 305.27265			43387.38302		69.63800		324.00000 
 43692.65567		 954.00688			42738.64880		229.54400		875.00000 
 43692.65567		 305.27265			43387.38302		69.63800		324.00000 
 43692.65567		 954.00688			42738.64880		229.54400		875.00000 
 43692.65567		 305.27265			43387.38302		69.63800		324.00000 
 43692.65567		 954.00688			42738.64880		229.54400		875.00000 
 43692.65567		 305.27265			43387.38302		69.63800		324.00000 
 43692.65567		 954.00688			42738.64880		229.54400		875.00000 
 43692.65567		 305.27265			43387.38302		69.63800		324.00000 
 43692.65567		 954.00688			42738.64880		229.54400		875.00000 
 43692.65567		 305.27265			43387.38302		69.63800		324.00000 
 43692.65567		 954.00688			42738.64880		229.54400		875.00000 
 43692.65567		 305.27265			43387.38302		69.63800		324.00000 
 43692.65567		 954.00688			42738.64880		229.54400		875.00000 
 43692.65567		 305.27265			43387.38302		69.63800		324.00000 
 43692.65567		 954.00688			42738.64880		229.54400		875.00000 
 43692.65567		 305.27265			43387.38302		69.63800		324.00000 
 43692.65567		 954.00688			42738.64880		229.54400		875.00000 
 43692.65567		 305.27265			43387.38302		69.63800		324.00000 
 43692.65567		 954.00688			42738.64880		229.54400		875.00000 
 43692.65567		 305.27265			43387.38302		69.63800		324.00000 
 43692.65567		 954.00688			42738.64880		229.54400		875.00000 
 43692.65567		 305.27265			43387.38302		69.63800		324.00000 
 43692.65567		 954.00688			42738.64880		229.54400		875.00000 
 43692.65567		 305.27265			43387.38302		69.63800		324.00000 
 43692.65567		 954.00688			42738.64880		229.54400		875.00000 
 43692.65567		 305.27265			43387.38302		69.63800		324.00000 
 43692.65567		 954.00688			42738.64880		229.54400		875.00000 
 43692.65567		 305.27265			43387.38302		69.63800		324.00000 
 43692.65567		 954.00688			42738.64880		229.54400		875.00000 
 43692.65567		 305.27265			43387.38302		69.63800		324.00000 
 43692.65567		 954.00688			42738.64880		229.54400		875.00000 
 43692.65567		 305.27265			43387.38302		70.24600		324.00000 
 43692.65567		 954.00688			42738.64880		229.54400		875.00000 
 43692.65567		 305.27265			43387.38302		70.24600		324.00000 
 43692.65567		 954.00688			42738.64880		229.54400		875.00000 
 43692.65567		 305.27265			43387.38302		70.24600		324.00000 
 43692.65567		 954.00688			42738.64880		229.54400		875.00000 
 43692.65567		 305.27265			43387.38302		70.24600		324.00000 
 43692.65567		 954.00688			42738.64880		229.54400		875.00000 
 43692.65567		 305.27265			43387.38302		70.24600		324.00000 
 43692.65567		 954.00688			42738.64880		229.54400		875.00000 
 43692.65567		 305.27265			43387.38302		70.24600		324.00000 
 43692.65567		 954.00688			42738.64880		229.54400		875.00000 
 43692.65567		 305.27265			43387.38302		70.24600		324.00000 
 43692.65567		 954.00688			42738.64880		229.54400		875.00000 
 43692.65567		 305.27265			43387.38302		70.24600		324.00000 
 43692.65567		 954.00688			42738.64880		229.54400		875.00000 
 43692.65567		 305.27265			43387.38302		70.24600		324.00000 
 43692.65567		 954.00688			42738.64880		229.54400		875.00000 
 43692.65567		 305.27265			43387.38302		70.24600		324.00000 
 43692.65567		 954.00688			42738.64880		229.54400		875.00000 
 43692.65567		 305.27265			43387.38302		70.24600		324.00000 
 43692.65567		 954.00688			42738.64880		229.54400		875.00000 
 43692.65567		 305.27265			43387.38302		70.24600		324.00000 
 43692.65567		 954.00688			42738.64880		229.54400		875.00000 
 43692.65567		 305.27265			43387.38302		70.24600		324.00000 
 43692.65567		 954.00688			42738.64880		229.54400		875.00000 
 43692.65567		 305.27265			43387.38302		70.24600		324.00000 
 43692.65567		 954.00688			42738.64880		229.54400		875.00000 
 43692.65567		 305.27265			43387.38302		70.24600		324.00000 
 43692.65567		 954.00688			42738.64880		229.54400		875.00000 
 43692.65567		 305.27265			43387.38302		70.24600		324.00000 
 43692.65567		 954.00688			42738.64880		229.54400		875.00000 
 43692.65567		 305.27265			43387.38302		70.24600		324.00000 
 43692.65567		 954.00688			42738.64880		229.54400		875.00000 
 43692.65567		 305.27265			43387.38302		70.24600		324.00000 
 43692.65567		 954.00688			42738.64880		229.54400		875.00000 
 43692.65567		 305.27265			43387.38302		70.24600		324.00000 
 43692.65567		 954.00688			42738.64880		229.54400		875.00000 
 43692.65567		 305.27265			43387.38302		70.24600		324.00000 
 43692.65567		 954.00688			42738.64880		229.54400		875.00000 
 43692.65567		 305.27265			43387.38302		70.24600		324.00000 
 43692.65567		 954.00688			42738.64880		229.54400		875.00000 
 43692.65567		 305.27265			43387.38302		70.24600		324.00000 
 43692.65567		 954.00688			42738.64880		229.54400		875.00000 
 43692.65567		 305.27265			43387.38302		70.24600		324.00000 
 43692.65567		 954.00688			42738.64880		229.54400		875.00000 
 43692.65567		 305.27265			43387.38302		70.24600		324.00000 
 43692.65567		 954.00688			42738.64880		229.54400		875.00000 
 43692.65567		 305.27265			43387.38302		70.24600		324.00000 
 43692.65567		 954.00688			42738.64880		229.54400		875.00000 
 43692.65567		 305.27265			43387.38302		70.24600		324.00000 
 43692.65567		 954.00688			42738.64880		229.54400		875.00000 
 43692.65567		 305.27265			43387.38302		70.24600		324.00000 
 43692.65567		 954.00688			42738.64880		229.54400		875.00000 
 43692.65567		 305.27265			43387.38302		70.24600		324.00000 
 43692.65567		 954.00688			42738.64880		229.54400		875.00000 
 43692.65567		 305.27265			43387.38302		70.24600		324.00000 
 43692.65567		 954.00688			42738.64880		229.54400		875.00000 
 43692.65567		 305.27265			43387.38302		70.24600		324.00000 
 43692.65567		 954.00688			42738.64880		229.54400		875.00000 
 43692.65567		 305.27265			43387.38302		70.24600		324.00000 
 43692.65567		 954.00688			42738.64880		229.54400		875.00000 
 43692.65567		 305.27265			43387.38302		70.24600		324.00000 
 43692.65567		 954.00688			42738.64880		229.54400		875.00000 
 43692.65567		 305.27265			43387.38302		70.24600		324.00000 
 43692.65567		 954.00688			42738.64880		229.54400		875.00000 
 43692.65567		 305.27265			43387.38302		70.24600		324.00000 
 43692.65567		 954.00688			42738.64880		229.54400		875.00000 
 43692.65567		 305.27265			43387.38302		70.24600		324.00000 
 43692.65567		 954.00688			42738.64880		229.54400		875.00000 
 43692.65567		 305.27265			43387.38302		70.24600		324.00000 
 43692.65567		 954.00688			42738.64880		229.54400		875.00000 
 43692.65567		 305.27265			43387.38302		70.24600		324.00000 
 43692.65567		 954.00688			42738.64880		229.54400		875.00000 
 43692.65567		 305.27265			43387.38302		70.24600		324.00000 
 43692.65567		 954.00688			42738.64880		229.54400		875.00000 
 43692.65567		 305.27265			43387.38302		70.24600		324.00000 
 43692.65567		 954.00688			42738.64880		229.54400		875.00000 
 43692.65567		 305.27265			43387.38302		70.24600		324.00000 
 43692.65567		 954.00688			42738.64880		229.54400		875.00000 
 43692.65567		 305.27265			43387.38302		70.24600		324.00000 
 43692.65567		 954.00688			42738.64880		229.54400		875.00000 
 43692.65567		 305.27265			43387.38302		70.24600		324.00000 
 43692.65567		 954.00688			42738.64880		229.54400		875.00000 
 43692.65567		 305.27265			43387.38302		70.24600		324.00000 
 43692.65567		 954.00688			42738.64880		229.54400		875.00000 
 43692.65567		 305.27265			43387.38302		70.24600		324.00000 
 43692.65567		 954.00688			42738.64880		229.54400		875.00000 
 43692.65567		 305.27265			43387.38302		70.24600		324.00000 
 43692.65567		 954.00688			42738.64880		229.54400		875.00000 
 43692.65567		 305.27265			43387.38302		70.24600		324.00000 
 43692.65567		 954.00688			42738.64880		229.54400		875.00000 
 43692.65567		 305.27265			43387.38302		70.24600		324.00000 
 43692.65567		 954.00688			42738.64880		229.54400		875.00000 
 43692.65567		 305.27265			43387.38302		70.24600		324.00000 
 43692.65567		 954.00688			42738.64880		229.54400		875.00000 
 43692.65567		 305.27265			43387.38302		70.24600		324.00000 
 43692.65567		 954.00688			42738.64880		229.54400		875.00000 
 43692.65567		 305.27265			43387.38302		70.24600		324.00000 
 43692.65567		 954.00688			42738.64880		229.54400		875.00000 
 43692.65567		 305.27265			43387.38302		70.24600		324.00000 
 43692.65567		 954.00688			42738.64880		229.54400		875.00000 
 43692.65567		 305.27265			43387.38302		70.24600		324.00000 
 43692.65567		 954.00688			42738.64880		229.54400		875.00000 
 43692.65567		 305.27265			43387.38302		70.24600		324.00000 
 43692.65567		 954.00688			42738.64880		229.54400		875.00000 
 43692.65567		 305.27265			43387.38302		70.24600		324.00000 
 43692.65567		 954.00688			42738.64880		229.54400		875.00000 
 43692.65567		 305.27265			43387.38302		70.24600		324.00000 
 43692.65567		 954.00688			42738.64880		229.54400		875.00000 
 43692.65567		 305.27265			43387.38302		70.24600		324.00000 
 43692.65567		 954.00688			42738.64880		229.54400		875.00000 
 43692.65567		 305.27265			43387.38302		70.24600		324.00000 
 43692.65567		 954.00688			42738.64880		229.54400		875.00000 
 43692.65567		 305.27265			43387.38302		70.24600		324.00000 
 43692.65567		 954.00688			42738.64880		229.54400		875.00000 
 43692.65567		 305.27265			43387.38302		70.24600		324.00000 
 43692.65567		 954.00688			42738.64880		229.54400		875.00000 
 43692.65567		 305.27265			43387.38302		70.24600		324.00000 
 43692.65567		 954.00688			42738.64880		229.54400		875.00000 
 43692.65567		 305.27265			43387.38302		70.24600		324.00000 
 43692.65567		 954.00688			42738.64880		229.54400		875.00000 
 43692.65567		 305.27265			43387.38302		70.24600		324.00000 
 43692.65567		 954.00688			42738.64880		229.54400		875.00000 
 43692.65567		 305.27265			43387.38302		70.24600		324.00000 
 43692.65567		 954.00688			42738.64880		229.54400		875.00000 
 43692.65567		 305.27265			43387.38302		70.24600		324.00000 
 43692.65567		 954.00688			42738.64880		229.54400		875.00000 
 43692.65567		 305.27265			43387.38302		70.24600		324.00000 
 43692.65567		 954.00688			42738.64880		229.54400		875.00000 
 43692.65567		 305.27265			43387.38302		70.24600		324.00000 
 43692.65567		 954.00688			42738.64880		229.54400		875.00000 
 43692.65567		 305.27265			43387.38302		70.24600		324.00000 
 43692.65567		 954.00688			42738.64880		229.54400		875.00000 
 43692.65567		 305.27265			43387.38302		70.24600		324.00000 
 43692.65567		 954.00688			42738.64880		229.54400		875.00000 
 43692.65567		 305.27265			43387.38302		70.24600		324.00000 
 43692.65567		 954.00688			42738.64880		229.54400		875.00000 
 43692.65567		 305.27265			43387.38302		70.24600		324.00000 
 43692.65567		 954.00688			42738.64880		229.54400		875.00000 
 43692.65567		 305.27265			43387.38302		70.24600		324.00000 
 43692.65567		 954.00688			42738.64880		229.54400		875.00000 
 43692.65567		 305.27265			43387.38302		70.24600		324.00000 
 43692.65567		 954.00688			42738.64880		229.54400		875.00000 
 43692.65567		 305.27265			43387.38302		70.24600		324.00000 
 43692.65567		 954.00688			42738.64880		229.54400		875.00000 
 43692.65567		 305.27265			43387.38302		70.24600		324.00000 
 43692.65567		 954.00688			42738.64880		229.54400		875.00000 
 43692.65567		 305.27265			43387.38302		70.24600		324.00000 
 43692.65567		 954.00688			42738.64880		229.54400		875.00000 
 43692.65567		 305.27265			43387.38302		70.24600		324.00000 
 43692.65567		 954.00688			42738.64880		229.54400		875.00000 
 43692.65567		 305.27265			43387.38302		70.24600		324.00000 
 43692.65567		 954.00688			42738.64880		229.54400		875.00000 
 43692.65567		 305.27265			43387.38302		70.24600		324.00000 
 43692.65567		 954.00688			42738.64880		229.54400		875.00000 
 43692.65567		 305.27265			43387.38302		70.24600		324.00000 
 43692.65567		 954.00688			42738.64880		229.54400		875.00000 
 43692.65567		 305.27265			43387.38302		70.24600		324.00000 
 43692.65567		 954.00688			42738.64880		229.54400		875.00000 
 43692.65567		 305.27265			43387.38302		70.24600		324.00000 
 43692.65567		 954.00688			42738.64880		229.54400		875.00000 
 43692.65567		 305.27265			43387.38302		70.24600		324.00000 
 43692.65567		 954.00688			42738.64880		229.54400		875.00000 
 43692.65567		 305.27265			43387.38302		70.24600		324.00000 
 43692.65567		 954.00688			42738.64880		229.54400		875.00000 
 43692.65567		 305.27265			43387.38302		70.24600		324.00000 
 43692.65567		 954.00688			42738.64880		229.54400		875.00000 
 43692.65567		 305.27265			43387.38302		70.24600		324.00000 
 43692.65567		 954.00688			42738.64880		229.54400		875.00000 
 43692.65567		 305.27265			43387.38302		70.24600		324.00000 
 43692.65567		 954.00688			42738.64880		229.54400		875.00000 
 43692.65567		 305.27265			43387.38302		70.24600		324.00000 
 43692.65567		 954.00688			42738.64880		229.54400		875.00000 
 43692.65567		 305.27265			43387.38302		70.24600		324.00000 
 43692.65567		 954.00688			42738.64880		229.54400		875.00000 
 43692.65567		 305.27265			43387.38302		70.24600		324.00000 
 43692.65567		 954.00688			42738.64880		229.54400		875.00000 
 43692.65567		 305.27265			43387.38302		70.24600		324.00000 
 43692.65567		 954.00688			42738.64880		229.54400		875.00000 
 43692.65567		 305.27265			43387.38302		70.24600		324.00000 
 43692.65567		 954.00688			42738.64880		229.54400		875.00000 
 43692.65567		 305.27265			43387.38302		70.24600		324.00000 
 43692.65567		 954.00688			42738.64880		229.54400		875.00000 
 43692.65567		 305.27265			43387.38302		70.24600		324.00000 
 43692.65567		 954.00688			42738.64880		229.54400		875.00000 
 43692.65567		 305.27265			43387.38302		70.24600		324.00000 
 43692.65567		 954.00688			42738.64880		229.54400		875.00000 
 43692.65567		 305.27265			43387.38302		70.24600		324.00000 
 43692.65567		 954.00688			42738.64880		229.54400		875.00000 
 43692.65567		 305.27265			43387.38302		70.24600		324.00000 
 43692.65567		 954.00688			42738.64880		229.54400		875.00000 
 43692.65567		 305.27265			43387.38302		70.24600		324.00000 
 43692.65567		 954.00688			42738.64880		229.54400		875.00000 
 43692.65567		 305.27265			43387.38302		70.24600		324.00000 
 43692.65567		 954.00688			42738.64880		229.54400		875.00000 
 43692.65567		 305.27265			43387.38302		70.24600		324.00000 
 43692.65567		 954.00688			42738.64880		229.54400		875.00000 
 43692.65567		 305.27265			43387.38302		70.24600		324.00000 
 43692.65567		 954.00688			42738.64880		229.54400		875.00000 
 43692.65567		 305.27265			43387.38302		70.24600		324.00000 
 43692.65567		 954.00688			42738.64880		229.54400		875.00000 
 43692.65567		 305.27265			43387.38302		70.24600		324.00000 
 43692.65567		 954.00688			42738.64880		229.54400		875.00000 
 43692.65567		 305.27265			43387.38302		70.24600		324.00000 
 43692.65567		 954.00688			42738.64880		229.54400		875.00000 
 43692.65567		 305.27265			43387.38302		70.24600		324.00000 
 43692.65567		 954.00688			42738.64880		229.54400		875.00000 
 43692.65567		 305.27265			43387.38302		70.24600		324.00000 
 43692.65567		 954.00688			42738.64880		229.54400		875.00000 
 43692.65567		 305.27265			43387.38302		70.24600		324.00000 
 43692.65567		 954.00688			42738.64880		229.54400		875.00000 
 43692.65567		 305.27265			43387.38302		70.24600		324.00000 
 43692.65567		 954.00688			42738.64880		229.54400		875.00000 
 43692.65567		 305.27265			43387.38302		70.24600		324.00000 
 43692.65567		 954.00688			42738.64880		229.54400		875.00000 
 43692.65567		 305.27265			43387.38302		70.24600		324.00000 
 43692.65567		 954.00688			42738.64880		229.54400		875.00000 
 43692.65567		 305.27265			43387.38302		70.24600		324.00000 
 43692.65567		 954.00688			42738.64880		229.54400		875.00000 
 43692.65567		 305.27265			43387.38302		70.24600		324.00000 
 43692.65567		 954.00688			42738.64880		229.54400		875.00000 
 43692.65567		 305.27265			43387.38302		70.24600		324.00000 
 43692.65567		 954.00688			42738.64880		229.54400		875.00000 
 43692.65567		 305.27265			43387.38302		70.24600		324.00000 
 43692.65567		 954.00688			42738.64880		229.54400		875.00000 
 43692.65567		 305.27265			43387.38302		70.24600		324.00000 
 43692.65567		 954.00688			42738.64880		229.54400		875.00000 
 43692.65567		 305.27265			43387.38302		70.24600		324.00000 
 43692.65567		 954.00688			42738.64880		229.54400		875.00000 
 43692.65567		 305.27265			43387.38302		70.24600		324.00000 
 43692.65567		 954.00688			42738.64880		229.54400		875.00000 
 43692.65567		 305.27265			43387.38302		70.24600		324.00000 
 43692.65567		 954.00688			42738.64880		229.54400		875.00000 
 43692.65567		 305.27265			43387.38302		70.24600		324.00000 
 43692.65567		 954.00688			42738.64880		229.54400		875.00000 
 43692.65567		 305.27265			43387.38302		70.24600		324.00000 
 43692.65567		 954.00688			42738.64880		229.54400		875.00000 
 43692.65567		 305.27265			43387.38302		70.24600		324.00000 
 43692.65567		 954.00688			42738.64880		229.54400		875.00000 
 43692.65567		 305.27265			43387.38302		70.24600		324.00000 
 43692.65567		 954.00688			42738.64880		229.54400		875.00000 
 43692.65567		 305.27265			43387.38302		70.24600		324.00000 
 43692.65567		 954.00688			42738.64880		229.54400		875.00000 
 43692.65567		 305.27265			43387.38302		70.24600		324.00000 
 43692.65567		 954.00688			42738.64880		229.54400		875.00000 
 43692.65567		 305.27265			43387.38302		70.24600		324.00000 
 43692.65567		 954.00688			42738.64880		229.54400		875.00000 
 43692.65567		 305.27265			43387.38302		70.24600		324.00000 
 43692.65567		 954.00688			42738.64880		229.54400		875.00000 
 43692.65567		 305.27265			43387.38302		70.24600		324.00000 
 43692.65567		 954.00688			42738.64880		229.54400		875.00000 
 43692.65567		 305.27265			43387.38302		70.24600		324.00000 
 43692.65567		 954.00688			42738.64880		229.54400		875.00000 
 43692.65567		 305.27265			43387.38302		70.24600		324.00000 
 43692.65567		 954.00688			42738.64880		229.54400		875.00000 
 43692.65567		 305.27265			43387.38302		70.24600		324.00000 
 43692.65567		 954.00688			42738.64880		229.54400		875.00000 
 43692.65567		 305.27265			43387.38302		70.24600		324.00000 
 43692.65567		 954.00688			42738.64880		229.54400		875.00000 
 43692.65567		 305.27265			43387.38302		70.24600		324.00000 
 43692.65567		 954.00688			42738.64880		229.54400		875.00000 
 43692.65567		 305.27265			43387.38302		70.24600		324.00000 
 43692.65567		 954.00688			42738.64880		229.54400		875.00000 
 43692.65567		 305.27265			43387.38302		70.24600		324.00000 
 43692.65567		 954.00688			42738.64880		229.54400		875.00000 
 43692.65567		 305.27265			43387.38302		70.24600		324.00000 
 43692.65567		 954.00688			42738.64880		229.54400		875.00000 
 43692.65567		 305.27265			43387.38302		70.24600		324.00000 
 43692.65567		 954.00688			42738.64880		229.54400		875.00000 
 43692.65567		 305.27265			43387.38302		70.24600		324.00000 
 43692.65567		 954.00688			42738.64880		229.54400		875.00000 
 43692.65567		 305.27265			43387.38302		70.24600		324.00000 
 43692.65567		 954.00688			42738.64880		229.54400		875.00000 
 43692.65567		 305.27265			43387.38302		70.24600		324.00000 
 43692.65567		 954.00688			42738.64880		229.54400		875.00000 
 43692.65567		 305.27265			43387.38302		70.24600		324.00000 
 43692.65567		 954.00688			42738.64880		229.54400		875.00000 
 43692.65567		 305.27265			43387.38302		70.24600		324.00000 
 43692.65567		 954.00688			42738.64880		229.54400		875.00000 
 43692.65567		 305.27265			43387.38302		70.24600		324.00000 
 43692.65567		 954.00688			42738.64880		229.54400		875.00000 
 43692.65567		 305.27265			43387.38302		70.24600		324.00000 
 43692.65567		 954.00688			42738.64880		229.54400		875.00000 
 43692.65567		 305.27265			43387.38302		70.24600		324.00000 
 43692.65567		 954.00688			42738.64880		229.54400		875.00000 
 43692.65567		 305.27265			43387.38302		70.24600		324.00000 
 43692.65567		 954.00688			42738.64880		229.54400		875.00000 
 43692.65567		 305.27265			43387.38302		70.24600		324.00000 
 43692.65567		 954.00688			42738.64880		229.54400		875.00000 
 43692.65567		 305.27265			43387.38302		70.24600		324.00000 
 43692.65567		 954.00688			42738.64880		229.54400		875.00000 
 43692.65567		 305.27265			43387.38302		70.24600		324.00000 
 43692.65567		 954.00688			42738.64880		229.54400		875.00000 
 43692.65567		 305.27265			43387.38302		70.24600		324.00000 
 43692.65567		 954.00688			42738.64880		229.54400		875.00000 
 43692.65567		 305.27265			43387.38302		70.24600		324.00000 
 43692.65567		 954.00688			42738.64880		229.54400		875.00000 
 43692.65567		 305.27265			43387.38302		70.24600		324.00000 
 43692.65567		 954.00688			42738.64880		229.54400		875.00000 
 43692.65567		 305.27265			43387.38302		70.24600		324.00000 
 43692.65567		 954.00688			42738.64880		229.54400		875.00000 
 43692.65567		 305.27265			43387.38302		70.24600		324.00000 
 43692.65567		 954.00688			42738.64880		229.54400		875.00000 
 43692.65567		 305.27265			43387.38302		70.24600		324.00000 
 43692.65567		 954.00688			42738.64880		229.54400		875.00000 
 43692.65567		 305.27265			43387.38302		70.24600		324.00000 
 43692.65567		 954.00688			42738.64880		229.54400		875.00000 
 43692.65567		 305.27265			43387.38302		70.24600		324.00000 
 43692.65567		 954.00688			42738.64880		229.54400		875.00000 
 43692.65567		 305.27265			43387.38302		70.24600		324.00000 
 43692.65567		 954.00688			42738.64880		229.54400		875.00000 
 43692.65567		 305.27265			43387.38302		70.24600		324.00000 
 43692.65567		 954.00688			42738.64880		229.54400		875.00000 
 43692.65567		 305.27265			43387.38302		70.24600		324.00000 
 43692.65567		 954.00688			42738.64880		229.54400		875.00000 
 43692.65567		 305.27265			43387.38302		70.24600		324.00000 
 43692.65567		 954.00688			42738.64880		229.54400		875.00000 
 43692.65567		 305.27265			43387.38302		70.24600		324.00000 
 43692.65567		 954.00688			42738.64880		229.54400		875.00000 
 43692.65567		 305.27265			43387.38302		70.24600		324.00000 
 43692.65567		 954.00688			42738.64880		229.54400		875.00000 
 43692.65567		 305.27265			43387.38302		70.24600		324.00000 
 43692.65567		 954.00688			42738.64880		229.54400		875.00000 
 43692.65567		 305.27265			43387.38302		70.24600		324.00000 
 43692.65567		 954.00688			42738.64880		229.54400		875.00000 
 43692.65567		 305.27265			43387.38302		70.24600		324.00000 
 43692.65567		 954.00688			42738.64880		229.54400		875.00000 
 43692.65567		 305.27265			43387.38302		70.24600		324.00000 
 43692.65567		 954.00688			42738.64880		229.54400		875.00000 
 43692.65567		 305.27265			43387.38302		70.24600		324.00000 
 43692.65567		 954.00688			42738.64880		229.54400		875.00000 
 43692.65567		 305.27265			43387.38302		70.24600		324.00000 
 43692.65567		 954.00688			42738.64880		229.54400		875.00000 
 43692.65567		 305.27265			43387.38302		70.24600		324.00000 
 43692.65567		 954.00688			42738.64880		229.54400		875.00000 
 43692.65567		 305.27265			43387.38302		70.24600		324.00000 
 43692.65567		 954.00688			42738.64880		229.54400		875.00000 
 43692.65567		 305.27265			43387.38302		70.24600		324.00000 
 43692.65567		 954.00688			42738.64880		229.54400		875.00000 
 43692.65567		 305.27265			43387.38302		70.24600		324.00000 
 43692.65567		 954.00688			42738.64880		229.54400		875.00000 
 43692.65567		 305.27265			43387.38302		70.24600		324.00000 
 43692.65567		 954.00688			42738.64880		229.54400		875.00000 
 43692.65567		 305.27265			43387.38302		70.24600		324.00000 
 43692.65567		 954.00688			42738.64880		229.54400		875.00000 
 43692.65567		 305.27265			43387.38302		70.24600		324.00000 
 43692.65567		 954.00688			42738.64880		229.54400		875.00000 
 43692.65567		 305.27265			43387.38302		70.24600		324.00000 
 43692.65567		 954.00688			42738.64880		229.54400		875.00000 
 43692.65567		 305.27265			43387.38302		70.24600		324.00000 
 43692.65567		 954.00688			42738.64880		229.54400		875.00000 
 43692.65567		 305.27265			43387.38302		70.24600		324.00000 
 43692.65567		 954.00688			42738.64880		229.54400		875.00000 
 43692.65567		 305.27265			43387.38302		70.24600		324.00000 
 43692.65567		 954.00688			42738.64880		229.54400		875.00000 
 43692.65567		 305.27265			43387.38302		70.24600		324.00000 
 43692.65567		 954.00688			42738.64880		229.54400		875.00000 
 43692.65567		 305.27265			43387.38302		70.24600		324.00000 
 43692.65567		 954.00688			42738.64880		229.54400		875.00000 
 43692.65567		 305.27265			43387.38302		70.24600		324.00000 
 43692.65567		 954.00688			42738.64880		229.54400		875.00000 
 43692.65567		 305.27265			43387.38302		70.24600		324.00000 
 43692.65567		 954.00688			42738.64880		229.54400		875.00000 
 43692.65567		 305.27265			43387.38302		70.24600		324.00000 
 43692.65567		 954.00688			42738.64880		229.54400		875.00000 
 43692.65567		 305.27265			43387.38302		70.24600		324.00000 
 43692.65567		 954.00688			42738.64880		229.54400		875.00000 
 43692.65567		 305.27265			43387.38302		70.24600		324.00000 
 43692.65567		 954.00688			42738.64880		229.54400		875.00000 
 43692.65567		 305.27265			43387.38302		70.24600		324.00000 
 43692.65567		 954.00688			42738.64880		229.54400		875.00000 
 43692.65567		 305.27265			43387.38302		70.24600		324.00000 
 43692.65567		 954.00688			42738.64880		229.54400		875.00000 
 43692.65567		 305.27265			43387.38302		70.24600		324.00000 
 43692.65567		 954.00688			42738.64880		229.54400		875.00000 
 43692.65567		 305.27265			43387.38302		70.24600		324.00000 
 43692.65567		 954.00688			42738.64880		229.54400		875.00000 
 43692.65567		 305.27265			43387.38302		70.24600		324.00000 
 43692.65567		 954.00688			42738.64880		229.54400		875.00000 
 43692.65567		 305.27265			43387.38302		70.24600		324.00000 
 43692.65567		 954.00688			42738.64880		229.54400		875.00000 
 43692.65567		 305.27265			43387.38302		70.24600		324.00000 
 43692.65567		 954.00688			42738.64880		229.54400		875.00000 
 43692.65567		 305.27265			43387.38302		70.24600		324.00000 
 43692.65567		 954.00688			42738.64880		229.54400		875.00000 
 43692.65567		 305.27265			43387.38302		70.24600		324.00000 
 43692.65567		 954.00688			42738.64880		229.54400		875.00000 
 43692.65567		 305.27265			43387.38302		70.24600		324.00000 
 43692.65567		 954.00688			42738.64880		229.54400		875.00000 
 43692.65567		 305.27265			43387.38302		70.24600		324.00000 
 43692.65567		 954.00688			42738.64880		229.54400		875.00000 
 43692.65567		 305.27265			43387.38302		70.24600		324.00000 
 43692.65567		 954.00688			42738.64880		229.54400		875.00000 
 43692.65567		 305.27265			43387.38302		70.24600		324.00000 
 43692.65567		 954.00688			42738.64880		229.54400		875.00000 
 43692.65567		 305.27265			43387.38302		70.24600		324.00000 
 43692.65567		 954.00688			42738.64880		229.54400		875.00000 
 43692.65567		 305.27265			43387.38302		70.24600		324.00000 
 43692.65567		 954.00688			42738.64880		229.54400		875.00000 
 43692.65567		 305.27265			43387.38302		70.24600		324.00000 
 43692.65567		 954.00688			42738.64880		229.54400		875.00000 
 43692.65567		 305.27265			43387.38302		70.24600		324.00000 
 43692.65567		 954.00688			42738.64880		229.54400		875.00000 
 43692.65567		 305.27265			43387.38302		70.24600		324.00000 
 43692.65567		 954.00688			42738.64880		229.54400		875.00000 
 43692.65567		 305.27265			43387.38302		70.24600		324.00000 
 43692.65567		 954.00688			42738.64880		229.54400		875.00000 
 43692.65567		 305.27265			43387.38302		70.24600		324.00000 
 43692.65567		 954.00688			42738.64880		229.54400		875.00000 
 43692.65567		 305.27265			43387.38302		70.24600		324.00000 
 43692.65567		 954.00688			42738.64880		229.54400		875.00000 
 43692.65567		 305.27265			43387.38302		70.24600		324.00000 
 43692.65567		 954.00688			42738.64880		229.54400		875.00000 
 43692.65567		 305.27265			43387.38302		70.24600		324.00000 
 43692.65567		 954.00688			42738.64880		229.54400		875.00000 
 43692.65567		 305.27265			43387.38302		70.24600		324.00000 
 43692.65567		 954.00688			42738.64880		229.54400		875.00000 
 43692.65567		 305.27265			43387.38302		70.24600		324.00000 
 43692.65567		 954.00688			42738.64880		229.54400		875.00000 
 43692.65567		 305.27265			43387.38302		70.24600		324.00000 
 43692.65567		 954.00688			42738.64880		229.54400		875.00000 
 43692.65567		 305.27265			43387.38302		70.24600		324.00000 
 43692.65567		 954.00688			42738.64880		229.54400		875.00000 
 43692.65567		 305.27265			43387.38302		70.24600		324.00000 
 43692.65567		 954.00688			42738.64880		229.54400		875.00000 
 43692.65567		 305.27265			43387.38302		70.24600		324.00000 
 43692.65567		 954.00688			42738.64880		229.54400		875.00000 
 43692.65567		 305.27265			43387.38302		70.24600		324.00000 
 43692.65567		 954.00688			42738.64880		229.54400		875.00000 
 43692.65567		 305.27265			43387.38302		70.24600		324.00000 
 43692.65567		 954.00688			42738.64880		229.54400		875.00000 
 43692.65567		 305.27265			43387.38302		70.24600		324.00000 
 43692.65567		 954.00688			42738.64880		229.54400		875.00000 
 43692.65567		 305.27265			43387.38302		70.24600		324.00000 
 43692.65567		 954.00688			42738.64880		229.54400		875.00000 
 43692.65567		 305.27265			43387.38302		70.24600		324.00000 
 43692.65567		 954.00688			42738.64880		229.54400		875.00000 
 43692.65567		 305.27265			43387.38302		70.24600		324.00000 
 43692.65567		 954.00688			42738.64880		229.54400		875.00000 
 43692.65567		 305.27265			43387.38302		70.24600		324.00000 
 43692.65567		 954.00688			42738.64880		229.54400		875.00000 
 43692.65567		 305.27265			43387.38302		70.24600		324.00000 
 43692.65567		 954.00688			42738.64880		229.54400		875.00000 
 43692.65567		 305.27265			43387.38302		70.24600		324.00000 
 43692.65567		 954.00688			42738.64880		229.54400		875.00000 
 43692.65567		 305.27265			43387.38302		70.24600		324.00000 
 43692.65567		 954.00688			42738.64880		229.54400		875.00000 
 43692.65567		 305.27265			43387.38302		70.24600		324.00000 
 43692.65567		 954.00688			42738.64880		229.54400		875.00000 
 43692.65567		 305.27265			43387.38302		70.24600		324.00000 
 43692.65567		 954.00688			42738.64880		229.54400		875.00000 
 43692.65567		 305.27265			43387.38302		70.24600		324.00000 
 43692.65567		 954.00688			42738.64880		229.54400		875.00000 
 43692.65567		 305.27265			43387.38302		70.24600		324.00000 
 43692.65567		 954.00688			42738.64880		229.54400		875.00000 
 43692.65567		 305.27265			43387.38302		70.24600		324.00000 
 43692.65567		 954.00688			42738.64880		229.54400		875.00000 
 43692.65567		 305.27265			43387.38302		70.24600		324.00000 
 43692.65567		 954.00688			42738.64880		229.54400		875.00000 
 43692.65567		 305.27265			43387.38302		70.24600		324.00000 
 43692.65567		 954.00688			42738.64880		229.54400		875.00000 
 43692.65567		 305.27265			43387.38302		70.24600		324.00000 
 43692.65567		 954.00688			42738.64880		229.54400		875.00000 
 43692.65567		 305.27265			43387.38302		70.24600		324.00000 
 43692.65567		 954.00688			42738.64880		229.54400		875.00000 
 43692.65567		 305.27265			43387.38302		70.24600		324.00000 
 43692.65567		 954.00688			42738.64880		229.54400		875.00000 
 43692.65567		 305.27265			43387.38302		70.24600		324.00000 
 43692.65567		 954.00688			42738.64880		229.54400		875.00000 
 43692.65567		 305.27265			43387.38302		70.24600		324.00000 
 43692.65567		 954.00688			42738.64880		229.54400		875.00000 
 43692.65567		 305.27265			43387.38302		70.24600		324.00000 
 43692.65567		 954.00688			42738.64880		229.54400		875.00000 
 43692.65567		 305.27265			43387.38302		70.24600		324.00000 
 43692.65567		 954.00688			42738.64880		229.54400		875.00000 
 43692.65567		 305.27265			43387.38302		70.24600		324.00000 
 43692.65567		 954.00688			42738.64880		229.54400		875.00000 
 43692.65567		 305.27265			43387.38302		70.24600		324.00000 
 43692.65567		 954.00688			42738.64880		229.54400		875.00000 
 43692.65567		 305.27265			43387.38302		70.24600		324.00000 
 43692.65567		 954.00688			42738.64880		229.54400		875.00000 
 43692.65567		 305.27265			43387.38302		70.24600		324.00000 
 43692.65567		 954.00688			42738.64880		229.54400		875.00000 
 43692.65567		 305.27265			43387.38302		70.24600		324.00000 
 43692.65567		 954.00688			42738.64880		229.54400		875.00000 
 43692.65567		 305.27265			43387.38302		70.24600		324.00000 
 43692.65567		 954.00688			42738.64880		229.54400		875.00000 
 43692.65567		 305.27265			43387.38302		70.24600		324.00000 
 43692.65567		 954.00688			42738.64880		229.54400		875.00000 
 43692.65567		 305.27265			43387.38302		70.24600		324.00000 
 43692.65567		 954.00688			42738.64880		229.54400		875.00000 
 43692.65567		 305.27265			43387.38302		70.24600		324.00000 
 43692.65567		 954.00688			42738.64880		229.54400		875.00000 
 43692.65567		 305.27265			43387.38302		70.24600		324.00000 
 43692.65567		 954.00688			42738.64880		229.54400		875.00000 
 43692.65567		 305.27265			43387.38302		70.24600		324.00000 
 43692.65567		 954.00688			42738.64880		229.54400		875.00000 
 43692.65567		 305.27265			43387.38302		70.24600		324.00000 
 43692.65567		 954.00688			42738.64880		229.54400		875.00000 
 43692.65567		 305.27265			43387.38302		70.24600		324.00000 
 43692.65567		 954.00688			42738.64880		229.54400		875.00000 
 43692.65567		 305.27265			43387.38302		70.24600		324.00000 
 43692.65567		 954.00688			42738.64880		229.54400		875.00000 
 43692.65567		 305.27265			43387.38302		70.24600		324.00000 
 43692.65567		 954.00688			42738.64880		229.54400		875.00000 
 43692.65567		 305.27265			43387.38302		70.24600		324.00000 
 43692.65567		 954.00688			42738.64880		229.54400		875.00000 
 43692.65567		 305.27265			43387.38302		70.24600		324.00000 
 43692.65567		 954.00688			42738.64880		229.54400		875.00000 
 43692.65567		 305.27265			43387.38302		70.24600		324.00000 
 43692.65567		 954.00688			42738.64880		229.54400		875.00000 
 43692.65567		 305.27265			43387.38302		70.24600		324.00000 
 43692.65567		 954.00688			42738.64880		229.54400		875.00000 
 43692.65567		 305.27265			43387.38302		70.24600		324.00000 
 43692.65567		 954.00688			42738.64880		229.54400		875.00000 
 43692.65567		 305.27265			43387.38302		70.24600		324.00000 
 43692.65567		 954.00688			42738.64880		229.54400		875.00000 
 43692.65567		 305.27265			43387.38302		70.24600		324.00000 
 43692.65567		 954.00688			42738.64880		229.54400		875.00000 
 43692.65567		 305.27265			43387.38302		70.24600		324.00000 
 43692.65567		 954.00688			42738.64880		229.54400		875.00000 
 43692.65567		 305.27265			43387.38302		70.24600		324.00000 
 43692.65567		 954.00688			42738.64880		229.54400		875.00000 
 43692.65567		 305.27265			43387.38302		70.24600		324.00000 
 43692.65567		 954.00688			42738.64880		229.54400		875.00000 
 43692.65567		 305.27265			43387.38302		70.24600		324.00000 
 43692.65567		 954.00688			42738.64880		229.54400		875.00000 
 43692.65567		 305.27265			43387.38302		70.24600		324.00000 
 43692.65567		 954.00688			42738.64880		229.54400		875.00000 
 43692.65567		 305.27265			43387.38302		70.24600		324.00000 
 43692.65567		 954.00688			42738.64880		229.54400		875.00000 
 43692.65567		 305.27265			43387.38302		70.24600		324.00000 
 43692.65567		 954.00688			42738.64880		229.54400		875.00000 
 43692.65567		 305.27265			43387.38302		70.24600		324.00000 
 43692.65567		 954.00688			42738.64880		229.54400		875.00000 
 43692.65567		 305.27265			43387.38302		70.24600		324.00000 
 43692.65567		 954.00688			42738.64880		229.54400		875.00000 
 43692.65567		 305.27265			43387.38302		70.24600		324.00000 
 43692.65567		 954.00688			42738.64880		229.54400		875.00000 
 43692.65567		 305.27265			43387.38302		70.24600		324.00000 
 43692.65567		 954.00688			42738.64880		229.54400		875.00000 
 43692.65567		 305.27265			43387.38302		70.24600		324.00000 
 43692.65567		 954.00688			42738.64880		229.54400		875.00000 
 43692.65567		 305.27265			43387.38302		70.24600		324.00000 
 43692.65567		 954.00688			42738.64880		229.54400		875.00000 
 43692.65567		 305.27265			43387.38302		70.24600		324.00000 
 43692.65567		 954.00688			42738.64880		229.54400		875.00000 
 43692.65567		 305.27265			43387.38302		70.24600		324.00000 
 43692.65567		 954.00688			42738.64880		229.54400		875.00000 
 43692.65567		 305.27265			43387.38302		70.24600		324.00000 
 43692.65567		 954.00688			42738.64880		229.54400		875.00000 
 43692.65567		 305.27265			43387.38302		70.24600		324.00000 
 43692.65567		 954.00688			42738.64880		229.54400		875.00000 
 43692.65567		 305.27265			43387.38302		70.24600		324.00000 
 43692.65567		 954.00688			42738.64880		229.54400		875.00000 
 43692.65567		 305.27265			43387.38302		70.24600		324.00000 
 43692.65567		 954.00688			42738.64880		229.54400		875.00000 
 43692.65567		 305.27265			43387.38302		70.24600		324.00000 
 43692.65567		 954.00688			42738.64880		229.54400		875.00000 
 43692.65567		 305.27265			43387.38302		70.24600		324.00000 
 43692.65567		 954.00688			42738.64880		229.54400		875.00000 
 43692.65567		 305.27265			43387.38302		70.24600		324.00000 
 43692.65567		 954.00688			42738.64880		229.54400		875.00000 
 43692.65567		 305.27265			43387.38302		70.24600		324.00000 
 43692.65567		 954.00688			42738.64880		229.54400		875.00000 
 43692.65567		 305.27265			43387.38302		70.24600		324.00000 
 43692.65567		 954.00688			42738.64880		229.54400		875.00000 
 43692.65567		 305.27265			43387.38302		70.24600		324.00000 
 43692.65567		 954.00688			42738.64880		229.54400		875.00000 
 43692.65567		 305.27265			43387.38302		70.24600		324.00000 
 43692.65567		 954.00688			42738.64880		229.54400		875.00000 
 43692.65567		 305.27265			43387.38302		70.24600		324.00000 
 43692.65567		 954.00688			42738.64880		229.54400		875.00000 
 43692.65567		 305.27265			43387.38302		70.24600		324.00000 
 43692.65567		 954.00688			42738.64880		229.54400		875.00000 
 43692.65567		 305.27265			43387.38302		70.24600		324.00000 
 43692.65567		 954.00688			42738.64880		229.54400		875.00000 
 43692.65567		 305.27265			43387.38302		70.24600		324.00000 
 43692.65567		 954.00688			42738.64880		229.54400		875.00000 
 43692.65567		 305.27265			43387.38302		70.24600		324.00000 
 43692.65567		 954.00688			42738.64880		229.54400		875.00000 
 43692.65567		 305.27265			43387.38302		70.24600		324.00000 
 43692.65567		 954.00688			42738.64880		229.54400		875.00000 
 43692.65567		 305.27265			43387.38302		70.24600		324.00000 
 43692.65567		 954.00688			42738.64880		229.54400		875.00000 
 43692.65567		 305.27265			43387.38302		70.24600		324.00000 
 43692.65567		 954.00688			42738.64880		229.54400		875.00000 
 43692.65567		 305.27265			43387.38302		70.24600		324.00000 
 43692.65567		 954.00688			42738.64880		229.54400		875.00000 
 43692.65567		 305.27265			43387.38302		70.24600		324.00000 
 43692.65567		 954.00688			42738.64880		229.54400		875.00000 
 43692.65567		 305.27265			43387.38302		70.24600		324.00000 
 43692.65567		 954.00688			42738.64880		229.54400		875.00000 
 43692.65567		 305.27265			43387.38302		70.24600		324.00000 
 43692.65567		 954.00688			42738.64880		229.54400		875.00000 
 43692.65567		 305.27265			43387.38302		70.24600		324.00000 
 43692.65567		 954.00688			42738.64880		229.54400		875.00000 
 43692.65567		 305.27265			43387.38302		70.24600		324.00000 
 43692.65567		 954.00688			42738.64880		229.54400		875.00000 
 43692.65567		 305.27265			43387.38302		70.24600		324.00000 
 43692.65567		 954.00688			42738.64880		229.54400		875.00000 
 43692.65567		 305.27265			43387.38302		70.24600		324.00000 
 43692.65567		 954.00688			42738.64880		229.54400		875.00000 
 43692.65567		 305.27265			43387.38302		70.24600		324.00000 
 43692.65567		 954.00688			42738.64880		229.54400		875.00000 
 43692.65567		 305.27265			43387.38302		70.24600		324.00000 
 43692.65567		 954.00688			42738.64880		229.54400		875.00000 
 43692.65567		 305.27265			43387.38302		70.24600		324.00000 
 43692.65567		 954.00688			42738.64880		229.54400		875.00000 
 43692.65567		 305.27265			43387.38302		70.24600		324.00000 
 43692.65567		 954.00688			42738.64880		229.54400		875.00000 
 43692.65567		 305.27265			43387.38302		70.24600		324.00000 
 43692.65567		 954.00688			42738.64880		229.54400		875.00000 
 43692.65567		 305.27265			43387.38302		70.24600		324.00000 
 43692.65567		 954.00688			42738.64880		229.54400		875.00000 
 43692.65567		 305.27265			43387.38302		70.24600		324.00000 
 43692.65567		 954.00688			42738.64880		229.54400		875.00000 
 43692.65567		 305.27265			43387.38302		70.24600		324.00000 
 43692.65567		 954.00688			42738.64880		229.54400		875.00000 
 43692.65567		 305.27265			43387.38302		70.24600		324.00000 
 43692.65567		 954.00688			42738.64880		229.54400		875.00000 
 43692.65567		 305.27265			43387.38302		70.24600		324.00000 
 43692.65567		 954.00688			42738.64880		229.54400		875.00000 
 43692.65567		 305.27265			43387.38302		70.24600		324.00000 
 43692.65567		 954.00688			42738.64880		229.54400		875.00000 
 43692.65567		 305.27265			43387.38302		70.24600		324.00000 
 43692.65567		 954.00688			42738.64880		229.54400		875.00000 
 43692.65567		 305.27265			43387.38302		70.24600		324.00000 
 43692.65567		 954.00688			42738.64880		229.54400		875.00000 
 43692.65567		 305.27265			43387.38302		70.24600		324.00000 
 43692.65567		 954.00688			42738.64880		229.54400		875.00000 
 43692.65567		 305.27265			43387.38302		70.24600		324.00000 
 43692.65567		 954.00688			42738.64880		229.54400		875.00000 
 43692.65567		 305.27265			43387.38302		70.24600		324.00000 
 43692.65567		 954.00688			42738.64880		229.54400		875.00000 
 43692.65567		 305.27265			43387.38302		70.24600		324.00000 
 43692.65567		 954.00688			42738.64880		229.54400		875.00000 
 43692.65567		 305.27265			43387.38302		70.24600		324.00000 
 43692.65567		 954.00688			42738.64880		229.54400		875.00000 
 43692.65567		 305.27265			43387.38302		70.24600		324.00000 
 43692.65567		 954.00688			42738.64880		229.54400		875.00000 
 43692.65567		 305.27265			43387.38302		70.24600		324.00000 
 43692.65567		 954.00688			42738.64880		229.54400		875.00000 
 43692.65567		 305.27265			43387.38302		70.24600		324.00000 
 43692.65567		 954.00688			42738.64880		229.54400		875.00000 
 43692.65567		 305.27265			43387.38302		70.24600		324.00000 
 43692.65567		 954.00688			42738.64880		229.54400		875.00000 
 43692.65567		 305.27265			43387.38302		70.24600		324.00000 
 43692.65567		 954.00688			42738.64880		229.54400		875.00000 
 43692.65567		 305.27265			43387.38302		70.24600		324.00000 
 43692.65567		 954.00688			42738.64880		229.54400		875.00000 
 43692.65567		 305.27265			43387.38302		70.24600		324.00000 
 43692.65567		 954.00688			42738.64880		229.54400		875.00000 
 43692.65567		 305.27265			43387.38302		70.24600		324.00000 
 43692.65567		 954.00688			42738.64880		229.54400		875.00000 
 43692.65567		 305.27265			43387.38302		70.24600		324.00000 
 43692.65567		 954.00688			42738.64880		229.54400		875.00000 
 43692.65567		 305.27265			43387.38302		70.24600		324.00000 
 43692.65567		 954.00688			42738.64880		229.54400		875.00000 
 43692.65567		 305.27265			43387.38302		70.24600		324.00000 
 43692.65567		 954.00688			42738.64880		229.54400		875.00000 
 43692.65567		 305.27265			43387.38302		70.24600		324.00000 
 43692.65567		 954.00688			42738.64880		229.54400		875.00000 
 43692.65567		 305.27265			43387.38302		70.24600		324.00000 
 43692.65567		 954.00688			42738.64880		229.54400		875.00000 
 43692.65567		 305.27265			43387.38302		70.24600		324.00000 
 43692.65567		 954.00688			42738.64880		229.54400		875.00000 
 43692.65567		 305.27265			43387.38302		70.24600		324.00000 
 43692.65567		 954.00688			42738.64880		229.54400		875.00000 
 43692.65567		 305.27265			43387.38302		70.24600		324.00000 
 43692.65567		 954.00688			42738.64880		229.54400		875.00000 
 43692.65567		 305.27265			43387.38302		70.24600		324.00000 
 43692.65567		 954.00688			42738.64880		229.54400		875.00000 
 43692.65567		 305.27265			43387.38302		70.24600		324.00000 
 43692.65567		 954.00688			42738.64880		229.54400		875.00000 
 43692.65567		 305.27265			43387.38302		70.24600		324.00000 
 43692.65567		 954.00688			42738.64880		229.54400		875.00000 
 43692.65567		 305.27265			43387.38302		70.24600		324.00000 
 43692.65567		 954.00688			42738.64880		229.54400		875.00000 
 43692.65567		 305.27265			43387.38302		70.24600		324.00000 
 43692.65567		 954.00688			42738.64880		229.54400		875.00000 
 43692.65567		 305.27265			43387.38302		70.24600		324.00000 
 43692.65567		 954.00688			42738.64880		229.54400		875.00000 
 43692.65567		 305.27265			43387.38302		70.24600		324.00000 
 43692.65567		 954.00688			42738.64880		229.54400		875.00000 
 43692.65567		 305.27265			43387.38302		70.24600		324.00000 
 43692.65567		 954.00688			42738.64880		229.54400		875.00000 
 43692.65567		 305.27265			43387.38302		70.24600		324.00000 
 43692.65567		 954.00688			42738.64880		229.54400		875.00000 
 43692.65567		 305.27265			43387.38302		70.24600		324.00000 
 43692.65567		 954.00688			42738.64880		229.54400		875.00000 
 43692.65567		 305.27265			43387.38302		70.24600		324.00000 
 43692.65567		 954.00688			42738.64880		229.54400		875.00000 
 43692.65567		 305.27265			43387.38302		70.24600		324.00000 
 43692.65567		 954.00688			42738.64880		229.54400		875.00000 
 43692.65567		 305.27265			43387.38302		70.24600		324.00000 
 43692.65567		 954.00688			42738.64880		229.54400		875.00000 
 43692.65567		 305.27265			43387.38302		70.24600		324.00000 
 43692.65567		 954.00688			42738.64880		229.54400		875.00000 
 43692.65567		 305.27265			43387.38302		70.24600		324.00000 
 43692.65567		 954.00688			42738.64880		229.54400		875.00000 
 43692.65567		 305.27265			43387.38302		70.24600		324.00000 
 43692.65567		 954.00688			42738.64880		229.54400		875.00000 
 43692.65567		 305.27265			43387.38302		70.24600		324.00000 
 43692.65567		 954.00688			42738.64880		229.54400		875.00000 
 43692.65567		 305.27265			43387.38302		70.24600		324.00000 
 43692.65567		 954.00688			42738.64880		229.54400		875.00000 
 43692.65567		 305.27265			43387.38302		70.24600		324.00000 
 43692.65567		 954.00688			42738.64880		229.54400		875.00000 
 43692.65567		 305.27265			43387.38302		70.24600		324.00000 
 43692.65567		 954.00688			42738.64880		229.54400		875.00000 
 43692.65567		 305.27265			43387.38302		70.24600		324.00000 
 43692.65567		 954.00688			42738.64880		229.54400		875.00000 
 43692.65567		 305.27265			43387.38302		70.24600		324.00000 
 43692.65567		 954.00688			42738.64880		229.54400		875.00000 
 43692.65567		 305.27265			43387.38302		70.24600		324.00000 
 43692.65567		 954.00688			42738.64880		229.54400		875.00000 
 43692.65567		 305.27265			43387.38302		70.24600		324.00000 
 43692.65567		 954.00688			42738.64880		229.54400		875.00000 
 43692.65567		 305.27265			43387.38302		70.24600		324.00000 
 43692.65567		 954.00688			42738.64880		229.54400		875.00000 
 43692.65567		 305.27265			43387.38302		70.24600		324.00000 
 43692.65567		 954.00688			42738.64880		229.54400		875.00000 
 43692.65567		 305.27265			43387.38302		70.24600		324.00000 
 43692.65567		 954.00688			42738.64880		229.54400		875.00000 
 43692.65567		 305.27265			43387.38302		70.24600		324.00000 
 43692.65567		 954.00688			42738.64880		229.54400		875.00000 
 43692.65567		 305.27265			43387.38302		70.24600		324.00000 
 43692.65567		 954.00688			42738.64880		229.54400		875.00000 
 43692.65567		 305.27265			43387.38302		70.24600		324.00000 
 43692.65567		 954.00688			42738.64880		229.54400		875.00000 
 43692.65567		 305.27265			43387.38302		70.24600		324.00000 
 43692.65567		 954.00688			42738.64880		229.54400		875.00000 
 43692.65567		 305.27265			43387.38302		70.24600		324.00000 
 43692.65567		 954.00688			42738.64880		229.54400		875.00000 
 43692.65567		 305.27265			43387.38302		70.24600		324.00000 
 43692.65567		 954.00688			42738.64880		229.54400		875.00000 
 43692.65567		 305.27265			43387.38302		70.24600		324.00000 
 43692.65567		 954.00688			42738.64880		229.54400		875.00000 
 43692.65567		 305.27265			43387.38302		70.24600		324.00000 
 43692.65567		 954.00688			42738.64880		229.54400		875.00000 
 43692.65567		 305.27265			43387.38302		70.24600		324.00000 
 43692.65567		 954.00688			42738.64880		229.54400		875.00000 
 43692.65567		 305.27265			43387.38302		70.24600		324.00000 
 43692.65567		 954.00688			42738.64880		229.54400		875.00000 
 43692.65567		 305.27265			43387.38302		70.24600		324.00000 
 43692.65567		 954.00688			42738.64880		229.54400		875.00000 
 43692.65567		 305.27265			43387.38302		70.24600		324.00000 
 43692.65567		 954.00688			42738.64880		229.54400		875.00000 
 43692.65567		 305.27265			43387.38302		70.24600		324.00000 
 43692.65567		 954.00688			42738.64880		229.54400		875.00000 
 43692.65567		 305.27265			43387.38302		70.24600		324.00000 
 43692.65567		 954.00688			42738.64880		229.54400		875.00000 
 43692.65567		 305.27265			43387.38302		70.24600		324.00000 
 43692.65567		 954.00688			42738.64880		229.54400		875.00000 
 43692.65567		 305.27265			43387.38302		70.24600		324.00000 
 43692.65567		 954.00688			42738.64880		229.54400		875.00000 
 43692.65567		 305.27265			43387.38302		70.24600		324.00000 
 43692.65567		 954.00688			42738.64880		229.54400		875.00000 
 43692.65567		 305.27265			43387.38302		70.24600		324.00000 
 43692.65567		 954.00688			42738.64880		229.54400		875.00000 
 43692.65567		 305.27265			43387.38302		70.24600		324.00000 
 43692.65567		 954.00688			42738.64880		229.54400		875.00000 
 43692.65567		 305.27265			43387.38302		70.24600		324.00000 
 43692.65567		 954.00688			42738.64880		229.54400		875.00000 
 43692.65567		 305.27265			43387.38302		70.24600		324.00000 
 43692.65567		 954.00688			42738.64880		229.54400		875.00000 
 43692.65567		 305.27265			43387.38302		70.24600		324.00000 
 43692.65567		 954.00688			42738.64880		229.54400		875.00000 
 43692.65567		 305.27265			43387.38302		70.24600		324.00000 
 43692.65567		 954.00688			42738.64880		229.54400		875.00000 
 43692.65567		 305.27265			43387.38302		70.24600		324.00000 
 43692.65567		 954.00688			42738.64880		229.54400		875.00000 
 43692.65567		 305.27265			43387.38302		70.24600		324.00000 
 43692.65567		 954.00688			42738.64880		228.94600		875.00000 
 43692.65567		 305.27265			43387.38302		70.24600		324.00000 
 43692.65567		 954.00688			42738.64880		228.94600		875.00000 
 43692.65567		 305.27265			43387.38302		70.24600		324.00000 
 43692.65567		 954.00688			42738.64880		228.94600		875.00000 
 43692.65567		 305.27265			43387.38302		70.24600		324.00000 
 43692.65567		 954.00688			42738.64880		228.94600		875.00000 
 43692.65567		 305.27265			43387.38302		70.24600		324.00000 
 43692.65567		 954.00688			42738.64880		228.94600		875.00000 
 43692.65567		 305.27265			43387.38302		70.24600		324.00000 
 43692.65567		 954.00688			42738.64880		228.94600		875.00000 
 43692.65567		 305.27265			43387.38302		70.24600		324.00000 
 43692.65567		 954.00688			42738.64880		228.94600		875.00000 
 43692.65567		 305.27265			43387.38302		70.24600		324.00000 
 43692.65567		 954.00688			42738.64880		228.94600		875.00000 
 43692.65567		 305.27265			43387.38302		70.24600		324.00000 
 43692.65567		 954.00688			42738.64880		228.94600		875.00000 
 43692.65567		 305.27265			43387.38302		70.24600		324.00000 
 43692.65567		 954.00688			42738.64880		228.94600		875.00000 
 43692.65567		 305.27265			43387.38302		70.24600		324.00000 
 43692.65567		 954.00688			42738.64880		228.94600		875.00000 
 43692.65567		 305.27265			43387.38302		70.24600		324.00000 
 43692.65567		 954.00688			42738.64880		228.94600		875.00000 
 43692.65567		 305.27265			43387.38302		70.24600		324.00000 
 43692.65567		 954.00688			42738.64880		228.94600		875.00000 
 43692.65567		 305.27265			43387.38302		70.24600		324.00000 
 43692.65567		 954.00688			42738.64880		228.94600		875.00000 
 43692.65567		 305.27265			43387.38302		70.24600		324.00000 
 43692.65567		 954.00688			42738.64880		228.94600		875.00000 
 43692.65567		 305.27265			43387.38302		70.24600		324.00000 
 43692.65567		 954.00688			42738.64880		228.94600		875.00000 
 43692.65567		 305.27265			43387.38302		70.24600		324.00000 
 43692.65567		 954.00688			42738.64880		228.94600		875.00000 
 43692.65567		 305.27265			43387.38302		70.24600		324.00000 
 43692.65567		 954.00688			42738.64880		228.94600		875.00000 
 43692.65567		 305.27265			43387.38302		70.24600		324.00000 
 43692.65567		 954.00688			42738.64880		228.94600		875.00000 
 43692.65567		 305.27265			43387.38302		70.24600		324.00000 
 43692.65567		 954.00688			42738.64880		228.94600		875.00000 
 43692.65567		 305.27265			43387.38302		70.24600		324.00000 
 43692.65567		 954.00688			42738.64880		228.94600		875.00000 
 43692.65567		 305.27265			43387.38302		70.24600		324.00000 
 43692.65567		 954.00688			42738.64880		228.94600		875.00000 
 43692.65567		 305.27265			43387.38302		70.24600		324.00000 
 43692.65567		 954.00688			42738.64880		228.94600		875.00000 
 43692.65567		 305.27265			43387.38302		70.24600		324.00000 
 43692.65567		 954.00688			42738.64880		228.94600		875.00000 
 43692.65567		 305.27265			43387.38302		70.24600		324.00000 
 43692.65567		 954.00688			42738.64880		228.94600		875.00000 
 43692.65567		 305.27265			43387.38302		70.24600		324.00000 
 43692.65567		 954.00688			42738.64880		228.94600		875.00000 
 43692.65567		 305.27265			43387.38302		70.24600		324.00000 
 43692.65567		 954.00688			42738.64880		228.94600		875.00000 
 43692.65567		 305.27265			43387.38302		70.24600		324.00000 
 43692.65567		 954.00688			42738.64880		228.94600		875.00000 
 43692.65567		 305.27265			43387.38302		70.24600		324.00000 
 43692.65567		 954.00688			42738.64880		228.94600		875.00000 
 43692.65567		 305.27265			43387.38302		70.24600		324.00000 
 43692.65567		 954.00688			42738.64880		228.94600		875.00000 
 43692.65567		 305.27265			43387.38302		70.24600		324.00000 
 43692.65567		 954.00688			42738.64880		228.94600		875.00000 
 43692.65567		 305.27265			43387.38302		70.24600		324.00000 
 43692.65567		 954.00688			42738.64880		228.94600		875.00000 
 43692.65567		 305.27265			43387.38302		70.24600		324.00000 
 43692.65567		 954.00688			42738.64880		228.94600		875.00000 
 43692.65567		 305.27265			43387.38302		70.24600		324.00000 
 43692.65567		 954.00688			42738.64880		228.94600		875.00000 
 43692.65567		 305.27265			43387.38302		70.24600		324.00000 
 43692.65567		 954.00688			42738.64880		228.94600		875.00000 
 43692.65567		 305.27265			43387.38302		70.24600		324.00000 
 43692.65567		 954.00688			42738.64880		228.94600		875.00000 
 43692.65567		 305.27265			43387.38302		70.24600		324.00000 
 43692.65567		 954.00688			42738.64880		228.94600		875.00000 
 43692.65567		 305.27265			43387.38302		70.24600		324.00000 
 43692.65567		 954.00688			42738.64880		228.94600		875.00000 
 43692.65567		 305.27265			43387.38302		70.24600		324.00000 
 43692.65567		 954.00688			42738.64880		228.94600		875.00000 
 43692.65567		 305.27265			43387.38302		70.24600		324.00000 
 43692.65567		 954.00688			42738.64880		228.94600		875.00000 
 43692.65567		 305.27265			43387.38302		70.24600		324.00000 
 43692.65567		 954.00688			42738.64880		228.94600		875.00000 
 43692.65567		 305.27265			43387.38302		70.24600		324.00000 
 43692.65567		 954.00688			42738.64880		228.94600		875.00000 
 43692.65567		 305.27265			43387.38302		70.24600		324.00000 
 43692.65567		 954.00688			42738.64880		228.94600		875.00000 
 43692.65567		 305.27265			43387.38302		70.24600		324.00000 
 43692.65567		 954.00688			42738.64880		228.94600		875.00000 
 43692.65567		 305.27265			43387.38302		70.24600		324.00000 
 43692.65567		 954.00688			42738.64880		228.94600		875.00000 
 43692.65567		 305.27265			43387.38302		70.24600		324.00000 
 43692.65567		 954.00688			42738.64880		228.94600		875.00000 
 43692.65567		 305.27265			43387.38302		70.24600		324.00000 
 43692.65567		 954.00688			42738.64880		228.94600		875.00000 
 43692.65567		 305.27265			43387.38302		70.24600		324.00000 
 43692.65567		 954.00688			42738.64880		228.94600		875.00000 
 43692.65567		 305.27265			43387.38302		70.24600		324.00000 
 43692.65567		 954.00688			42738.64880		228.94600		875.00000 
 43692.65567		 305.27265			43387.38302		70.24600		324.00000 
 43692.65567		 954.00688			42738.64880		228.94600		875.00000 
 43692.65567		 305.27265			43387.38302		70.24600		324.00000 
 43692.65567		 954.00688			42738.64880		228.94600		875.00000 
 43692.65567		 305.27265			43387.38302		70.24600		324.00000 
 43692.65567		 954.00688			42738.64880		228.94600		875.00000 
 43692.65567		 305.27265			43387.38302		70.24600		324.00000 
 43692.65567		 954.00688			42738.64880		228.94600		875.00000 
 43692.65567		 305.27265			43387.38302		70.24600		324.00000 
 43692.65567		 954.00688			42738.64880		228.94600		875.00000 
 43692.65567		 305.27265			43387.38302		70.24600		324.00000 
 43692.65567		 954.00688			42738.64880		228.94600		875.00000 
 43692.65567		 305.27265			43387.38302		70.24600		324.00000 
 43692.65567		 954.00688			42738.64880		228.94600		875.00000 
 43692.65567		 305.27265			43387.38302		70.24600		324.00000 
 43692.65567		 954.00688			42738.64880		228.94600		875.00000 
 43692.65567		 305.27265			43387.38302		70.24600		324.00000 
 43692.65567		 954.00688			42738.64880		228.94600		875.00000 
 43692.65567		 305.27265			43387.38302		70.24600		324.00000 
 43692.65567		 954.00688			42738.64880		228.94600		875.00000 
 43692.65567		 305.27265			43387.38302		70.24600		324.00000 
 43692.65567		 954.00688			42738.64880		228.94600		875.00000 
 43692.65567		 305.27265			43387.38302		70.24600		324.00000 
 43692.65567		 954.00688			42738.64880		228.94600		875.00000 
 43692.65567		 305.27265			43387.38302		70.24600		324.00000 
 43692.65567		 954.00688			42738.64880		228.94600		875.00000 
 43692.65567		 305.27265			43387.38302		70.24600		324.00000 
 43692.65567		 954.00688			42738.64880		228.94600		875.00000 
 43692.65567		 305.27265			43387.38302		70.24600		324.00000 
 43692.65567		 954.00688			42738.64880		228.94600		875.00000 
 43692.65567		 305.27265			43387.38302		70.24600		324.00000 
 43692.65567		 954.00688			42738.64880		228.94600		875.00000 
 43692.65567		 305.27265			43387.38302		70.24600		324.00000 
 43692.65567		 954.00688			42738.64880		228.94600		875.00000 
 43692.65567		 305.27265			43387.38302		70.24600		324.00000 
 43692.65567		 954.00688			42738.64880		228.94600		875.00000 
 43692.65567		 305.27265			43387.38302		70.24600		324.00000 
 43692.65567		 954.00688			42738.64880		228.94600		875.00000 
 43692.65567		 305.27265			43387.38302		70.24600		324.00000 
 43692.65567		 954.00688			42738.64880		228.94600		875.00000 
 43692.65567		 305.27265			43387.38302		70.24600		324.00000 
 43692.65567		 954.00688			42738.64880		228.94600		875.00000 
 43692.65567		 305.27265			43387.38302		70.24600		324.00000 
 43692.65567		 954.00688			42738.64880		228.94600		875.00000 
 43692.65567		 305.27265			43387.38302		70.24600		324.00000 
 43692.65567		 954.00688			42738.64880		228.94600		875.00000 
 43692.65567		 305.27265			43387.38302		70.24600		324.00000 
 43692.65567		 954.00688			42738.64880		228.94600		875.00000 
 43692.65567		 305.27265			43387.38302		70.24600		324.00000 
 43692.65567		 954.00688			42738.64880		228.94600		875.00000 
 43692.65567		 305.27265			43387.38302		70.24600		324.00000 
 43692.65567		 954.00688			42738.64880		228.94600		875.00000 
 43692.65567		 305.27265			43387.38302		70.24600		324.00000 
 43692.65567		 954.00688			42738.64880		228.94600		875.00000 
 43692.65567		 305.27265			43387.38302		70.24600		324.00000 
 43692.65567		 954.00688			42738.64880		228.94600		875.00000 
 43692.65567		 305.27265			43387.38302		70.24600		324.00000 
 43692.65567		 954.00688			42738.64880		228.94600		875.00000 
 43692.65567		 305.27265			43387.38302		70.24600		324.00000 
 43692.65567		 954.00688			42738.64880		228.94600		875.00000 
 43692.65567		 305.27265			43387.38302		70.24600		324.00000 
 43692.65567		 954.00688			42738.64880		228.94600		875.00000 
 43692.65567		 305.27265			43387.38302		70.24600		324.00000 
 43692.65567		 954.00688			42738.64880		228.94600		875.00000 
 43692.65567		 305.27265			43387.38302		70.24600		324.00000 
 43692.65567		 954.00688			42738.64880		228.94600		875.00000 
 43692.65567		 305.27265			43387.38302		70.24600		324.00000 
 43692.65567		 815.09469			42877.56098		228.94600		875.00000 
 43692.65567		 305.27265			43387.38302		70.24600		324.00000 
 43692.65567		 815.09469			42877.56098		228.94600		875.00000 
 43692.65567		 305.27265			43387.38302		70.24600		324.00000 
 43692.65567		 676.18251			43016.47317		228.94600		875.00000 
 43692.65567		 305.27265			43387.38302		70.24600		324.00000 
 43692.65567		 676.18251			43016.47317		228.94600		875.00000 
 43692.65567		 305.27265			43387.38302		70.24600		324.00000 
 43692.65567		 537.27032			43155.38535		228.94600		875.00000 
 43692.65567		 305.27265			43387.38302		70.24600		324.00000 
 43692.65567		 537.27032			43155.38535		228.94600		875.00000 
 43692.65567		 305.27265			43387.38302		70.24600		324.00000 
 43692.65567		 537.27032			43155.38535		228.94600		875.00000 
 43692.65567		 305.27265			43387.38302		70.24600		324.00000 
 43692.65567		 537.27032			43155.38535		228.94600		875.00000 
 43692.65567		 305.27265			43387.38302		70.24600		324.00000 
 43692.65567		 537.27032			43155.38535		228.94600		875.00000 
 43692.65567		 305.27265			43387.38302		70.24600		324.00000 
 43692.65567		 537.27032			43155.38535		228.94600		875.00000 
 43692.65567		 305.27265			43387.38302		70.24600		324.00000 
 43692.65567		 537.27032			43155.38535		228.94600		875.00000 
 43692.65567		 305.27265			43387.38302		70.24600		324.00000 
 43692.65567		 537.27032			43155.38535		228.94600		875.00000 
 43692.65567		 305.27265			43387.38302		70.24600		324.00000 
 43692.65567		 537.27032			43155.38535		228.94600		875.00000 
 43692.65567		 305.27265			43387.38302		70.24600		324.00000 
 43692.65567		 537.27032			43155.38535		228.94600		875.00000 
 43692.65567		 305.27265			43387.38302		70.24600		324.00000 
 43692.65567		 537.27032			43155.38535		228.94600		875.00000 
 43692.65567		 305.27265			43387.38302		70.24600		324.00000 
 43692.65567		 537.27032			43155.38535		228.94600		875.00000 
 43692.65567		 305.27265			43387.38302		70.24600		324.00000 
 43692.65567		 537.27032			43155.38535		228.94600		875.00000 
 43692.65567		 305.27265			43387.38302		70.24600		324.00000 
 43692.65567		 537.27032			43155.38535		228.94600		875.00000 
 43692.65567		 305.27265			43387.38302		70.24600		324.00000 
 43692.65567		 537.27032			43155.38535		228.94600		875.00000 
 43692.65567		 305.27265			43387.38302		70.24600		324.00000 
 43692.65567		 537.27032			43155.38535		228.94600		875.00000 
 43692.65567		 305.27265			43387.38302		70.24600		324.00000 
 43692.65567		 537.27032			43155.38535		228.94600		875.00000 
 43692.65567		 305.27265			43387.38302		70.24600		324.00000 
 43692.65567		 537.27032			43155.38535		228.94600		875.00000 
 43692.65567		 305.27265			43387.38302		70.24600		324.00000 
 43692.65567		 537.27032			43155.38535		228.94600		875.00000 
 43692.65567		 305.27265			43387.38302		70.24600		324.00000 
 43692.65567		 537.27032			43155.38535		228.94600		875.00000 
 43692.65567		 305.27265			43387.38302		70.24600		324.00000 
 43692.65567		 529.63254			43163.02313		228.94600		875.00000 
 43692.65567		 305.27265			43387.38302		70.24600		324.00000 
 43692.65567		 525.81365			43166.84203		228.94600		875.00000 
 43692.65567		 297.63487			43395.02080		70.24600		324.00000 
 43692.65567		 261.35540			43431.30027		181.47600		875.00000 
 43692.65567		 261.35540			43431.30027		70.24600		324.00000 
