Memory Total (MiB) 	 Memory Used (MiB) 	    Memory Free (MiB) 	 Power Drawed (W) 	 Clocks (Mhz) 	 
 43692.65567		 261.35540			43431.30027		203.62000		875.00000 
 43692.65567		 261.35540			43431.30027		67.15600		324.00000 
 43692.65567		 261.35540			43431.30027		203.62000		875.00000 
 43692.65567		 261.35540			43431.30027		67.15600		324.00000 
 43692.65567		 261.35540			43431.30027		203.62000		875.00000 
 43692.65567		 261.35540			43431.30027		67.15600		324.00000 
 43692.65567		 261.35540			43431.30027		203.62000		875.00000 
 43692.65567		 261.35540			43431.30027		67.15600		324.00000 
 43692.65567		 261.35540			43431.30027		203.62000		875.00000 
 43692.65567		 261.35540			43431.30027		67.15600		324.00000 
 43692.65567		 261.35540			43431.30027		203.62000		875.00000 
 43692.65567		 261.35540			43431.30027		67.15600		324.00000 
 43692.65567		 261.35540			43431.30027		203.62000		875.00000 
 43692.65567		 261.35540			43431.30027		67.15600		324.00000 
 43692.65567		 261.35540			43431.30027		203.62000		875.00000 
 43692.65567		 261.35540			43431.30027		67.15600		324.00000 
 43692.65567		 261.35540			43431.30027		203.62000		875.00000 
 43692.65567		 261.35540			43431.30027		67.15600		324.00000 
 43692.65567		 261.35540			43431.30027		203.62000		875.00000 
 43692.65567		 261.35540			43431.30027		67.15600		324.00000 
 43692.65567		 261.35540			43431.30027		203.62000		875.00000 
 43692.65567		 261.35540			43431.30027		67.15600		324.00000 
 43692.65567		 261.35540			43431.30027		203.62000		875.00000 
 43692.65567		 261.35540			43431.30027		67.15600		324.00000 
 43692.65567		 261.35540			43431.30027		203.62000		875.00000 
 43692.65567		 261.35540			43431.30027		67.15600		324.00000 
 43692.65567		 261.35540			43431.30027		203.62000		875.00000 
 43692.65567		 261.35540			43431.30027		67.15600		324.00000 
 43692.65567		 261.35540			43431.30027		203.62000		875.00000 
 43692.65567		 261.35540			43431.30027		67.15600		324.00000 
 43692.65567		 261.35540			43431.30027		203.62000		875.00000 
 43692.65567		 261.35540			43431.30027		67.15600		324.00000 
 43692.65567		 261.35540			43431.30027		159.60200		875.00000 
 43692.65567		 261.35540			43431.30027		67.15600		324.00000 
 43692.65567		 261.35540			43431.30027		159.60200		875.00000 
 43692.65567		 261.35540			43431.30027		67.15600		324.00000 
 43692.65567		 265.17429			43427.48138		159.60200		875.00000 
 43692.65567		 261.35540			43431.30027		67.15600		324.00000 
 43692.65567		 265.17429			43427.48138		159.60200		875.00000 
 43692.65567		 261.35540			43431.30027		67.15600		324.00000 
 43692.65567		 272.81207			43419.84360		159.60200		875.00000 
 43692.65567		 261.35540			43431.30027		67.15600		324.00000 
 43692.65567		 272.81207			43419.84360		159.60200		875.00000 
 43692.65567		 261.35540			43431.30027		67.15600		324.00000 
 43692.65567		 272.81207			43419.84360		159.60200		875.00000 
 43692.65567		 265.17429			43427.48138		67.15600		324.00000 
 43692.65567		 272.81207			43419.84360		159.60200		875.00000 
 43692.65567		 265.17429			43427.48138		67.15600		324.00000 
 43692.65567		 272.81207			43419.84360		159.60200		875.00000 
 43692.65567		 265.17429			43427.48138		67.15600		324.00000 
 43692.65567		 272.81207			43419.84360		159.60200		875.00000 
 43692.65567		 272.81207			43419.84360		67.15600		324.00000 
 43692.65567		 272.81207			43419.84360		159.60200		875.00000 
 43692.65567		 272.81207			43419.84360		67.15600		324.00000 
 43692.65567		 272.81207			43419.84360		159.60200		875.00000 
 43692.65567		 272.81207			43419.84360		67.15600		324.00000 
 43692.65567		 305.27265			43387.38302		159.60200		875.00000 
 43692.65567		 305.27265			43387.38302		67.15600		324.00000 
 43692.65567		 305.27265			43387.38302		159.60200		875.00000 
 43692.65567		 305.27265			43387.38302		67.15600		324.00000 
 43692.65567		 305.27265			43387.38302		159.60200		875.00000 
 43692.65567		 305.27265			43387.38302		67.15600		324.00000 
 43692.65567		 305.27265			43387.38302		159.60200		875.00000 
 43692.65567		 305.27265			43387.38302		67.15600		324.00000 
 43692.65567		 305.27265			43387.38302		159.60200		875.00000 
 43692.65567		 305.27265			43387.38302		67.15600		324.00000 
 43692.65567		 310.04627			43382.60941		159.60200		875.00000 
 43692.65567		 305.27265			43387.38302		67.15600		324.00000 
 43692.65567		 311.00099			43381.65468		159.60200		875.00000 
 43692.65567		 305.27265			43387.38302		67.15600		324.00000 
 43692.65567		 311.00099			43381.65468		159.60200		875.00000 
 43692.65567		 305.27265			43387.38302		67.15600		324.00000 
 43692.65567		 311.00099			43381.65468		159.60200		875.00000 
 43692.65567		 305.27265			43387.38302		67.15600		324.00000 
 43692.65567		 311.00099			43381.65468		159.60200		875.00000 
 43692.65567		 305.27265			43387.38302		67.15600		324.00000 
 43692.65567		 311.00099			43381.65468		159.60200		875.00000 
 43692.65567		 305.27265			43387.38302		67.15600		324.00000 
 43692.65567		 311.00099			43381.65468		159.60200		875.00000 
 43692.65567		 305.27265			43387.38302		67.15600		324.00000 
 43692.65567		 311.00099			43381.65468		159.60200		875.00000 
 43692.65567		 305.27265			43387.38302		67.15600		324.00000 
 43692.65567		 311.00099			43381.65468		159.60200		875.00000 
 43692.65567		 305.27265			43387.38302		67.15600		324.00000 
 43692.65567		 311.00099			43381.65468		159.60200		875.00000 
 43692.65567		 305.27265			43387.38302		67.15600		324.00000 
 43692.65567		 311.00099			43381.65468		159.60200		875.00000 
 43692.65567		 305.27265			43387.38302		67.15600		324.00000 
 43692.65567		 311.00099			43381.65468		159.60200		875.00000 
 43692.65567		 305.27265			43387.38302		67.15600		324.00000 
 43692.65567		 311.00099			43381.65468		159.60200		875.00000 
 43692.65567		 305.27265			43387.38302		67.15600		324.00000 
 43692.65567		 311.00099			43381.65468		141.99800		875.00000 
 43692.65567		 305.27265			43387.38302		67.15600		324.00000 
 43692.65567		 311.00099			43381.65468		141.99800		875.00000 
 43692.65567		 305.27265			43387.38302		67.15600		324.00000 
 43692.65567		 311.00099			43381.65468		141.99800		875.00000 
 43692.65567		 305.27265			43387.38302		67.15600		324.00000 
 43692.65567		 311.00099			43381.65468		141.99800		875.00000 
 43692.65567		 305.27265			43387.38302		67.15600		324.00000 
 43692.65567		 311.00099			43381.65468		141.99800		875.00000 
 43692.65567		 305.27265			43387.38302		67.15600		324.00000 
 43692.65567		 311.00099			43381.65468		141.99800		875.00000 
 43692.65567		 305.27265			43387.38302		67.15600		324.00000 
 43692.65567		 311.00099			43381.65468		141.99800		875.00000 
 43692.65567		 305.27265			43387.38302		67.15600		324.00000 
 43692.65567		 311.00099			43381.65468		141.99800		875.00000 
 43692.65567		 305.27265			43387.38302		67.15600		324.00000 
 43692.65567		 311.00099			43381.65468		141.99800		875.00000 
 43692.65567		 305.27265			43387.38302		67.15600		324.00000 
 43692.65567		 311.00099			43381.65468		141.99800		875.00000 
 43692.65567		 305.27265			43387.38302		67.15600		324.00000 
 43692.65567		 311.00099			43381.65468		141.99800		875.00000 
 43692.65567		 305.27265			43387.38302		67.15600		324.00000 
 43692.65567		 311.00099			43381.65468		141.99800		875.00000 
 43692.65567		 305.27265			43387.38302		67.15600		324.00000 
 43692.65567		 311.00099			43381.65468		141.99800		875.00000 
 43692.65567		 305.27265			43387.38302		67.15600		324.00000 
 43692.65567		 311.00099			43381.65468		141.99800		875.00000 
 43692.65567		 305.27265			43387.38302		67.15600		324.00000 
 43692.65567		 311.00099			43381.65468		141.99800		875.00000 
 43692.65567		 305.27265			43387.38302		67.15600		324.00000 
 43692.65567		 311.00099			43381.65468		141.99800		875.00000 
 43692.65567		 305.27265			43387.38302		67.15600		324.00000 
 43692.65567		 311.00099			43381.65468		141.99800		875.00000 
 43692.65567		 305.27265			43387.38302		67.15600		324.00000 
 43692.65567		 311.00099			43381.65468		141.99800		875.00000 
 43692.65567		 305.27265			43387.38302		67.15600		324.00000 
 43692.65567		 311.00099			43381.65468		141.99800		875.00000 
 43692.65567		 305.27265			43387.38302		67.15600		324.00000 
 43692.65567		 311.00099			43381.65468		141.99800		875.00000 
 43692.65567		 305.27265			43387.38302		67.15600		324.00000 
 43692.65567		 311.00099			43381.65468		141.99800		875.00000 
 43692.65567		 305.27265			43387.38302		67.15600		324.00000 
 43692.65567		 311.00099			43381.65468		141.99800		875.00000 
 43692.65567		 305.27265			43387.38302		67.15600		324.00000 
 43692.65567		 311.00099			43381.65468		141.99800		875.00000 
 43692.65567		 305.27265			43387.38302		67.15600		324.00000 
 43692.65567		 311.00099			43381.65468		141.99800		875.00000 
 43692.65567		 305.27265			43387.38302		67.15600		324.00000 
 43692.65567		 311.00099			43381.65468		141.99800		875.00000 
 43692.65567		 305.27265			43387.38302		67.15600		324.00000 
 43692.65567		 311.00099			43381.65468		141.99800		875.00000 
 43692.65567		 305.27265			43387.38302		67.15600		324.00000 
 43692.65567		 311.00099			43381.65468		141.99800		875.00000 
 43692.65567		 305.27265			43387.38302		67.15600		324.00000 
 43692.65567		 311.00099			43381.65468		141.99800		875.00000 
 43692.65567		 305.27265			43387.38302		67.15600		324.00000 
 43692.65567		 311.00099			43381.65468		141.99800		875.00000 
 43692.65567		 305.27265			43387.38302		67.15600		324.00000 
 43692.65567		 311.00099			43381.65468		141.99800		875.00000 
 43692.65567		 305.27265			43387.38302		67.15600		324.00000 
 43692.65567		 311.00099			43381.65468		141.99800		875.00000 
 43692.65567		 305.27265			43387.38302		67.15600		324.00000 
 43692.65567		 311.00099			43381.65468		135.03600		875.00000 
 43692.65567		 305.27265			43387.38302		67.15600		324.00000 
 43692.65567		 311.00099			43381.65468		135.03600		875.00000 
 43692.65567		 305.27265			43387.38302		67.15600		324.00000 
 43692.65567		 311.00099			43381.65468		135.03600		875.00000 
 43692.65567		 305.27265			43387.38302		67.15600		324.00000 
 43692.65567		 311.00099			43381.65468		135.03600		875.00000 
 43692.65567		 305.27265			43387.38302		67.15600		324.00000 
 43692.65567		 311.00099			43381.65468		135.03600		875.00000 
 43692.65567		 305.27265			43387.38302		67.15600		324.00000 
 43692.65567		 311.00099			43381.65468		135.03600		875.00000 
 43692.65567		 305.27265			43387.38302		67.15600		324.00000 
 43692.65567		 311.00099			43381.65468		135.03600		875.00000 
 43692.65567		 305.27265			43387.38302		67.15600		324.00000 
 43692.65567		 311.00099			43381.65468		135.03600		875.00000 
 43692.65567		 305.27265			43387.38302		67.15600		324.00000 
 43692.65567		 314.81988			43377.83579		135.03600		875.00000 
 43692.65567		 305.27265			43387.38302		67.15600		324.00000 
 43692.65567		 314.81988			43377.83579		135.03600		875.00000 
 43692.65567		 305.27265			43387.38302		67.15600		324.00000 
 43692.65567		 314.81988			43377.83579		135.03600		875.00000 
 43692.65567		 305.27265			43387.38302		67.15600		324.00000 
 43692.65567		 318.63877			43374.01690		135.03600		875.00000 
 43692.65567		 305.27265			43387.38302		67.15600		324.00000 
 43692.65567		 322.45767			43370.19801		135.03600		875.00000 
 43692.65567		 305.27265			43387.38302		67.15600		324.00000 
 43692.65567		 326.27656			43366.37912		135.03600		875.00000 
 43692.65567		 305.27265			43387.38302		67.15600		324.00000 
 43692.65567		 326.27656			43366.37912		135.03600		875.00000 
 43692.65567		 305.27265			43387.38302		67.15600		324.00000 
 43692.65567		 326.27656			43366.37912		135.03600		875.00000 
 43692.65567		 305.27265			43387.38302		67.15600		324.00000 
 43692.65567		 537.27032			43155.38535		135.03600		875.00000 
 43692.65567		 305.27265			43387.38302		67.15600		324.00000 
 43692.65567		 605.05565			43087.60002		135.03600		875.00000 
 43692.65567		 305.27265			43387.38302		67.15600		324.00000 
 43692.65567		 638.94831			43053.70736		135.03600		875.00000 
 43692.65567		 305.27265			43387.38302		67.15600		324.00000 
 43692.65567		 638.94831			43053.70736		135.03600		875.00000 
 43692.65567		 305.27265			43387.38302		67.15600		324.00000 
 43692.65567		 638.94831			43053.70736		135.03600		875.00000 
 43692.65567		 305.27265			43387.38302		67.15600		324.00000 
 43692.65567		 638.94831			43053.70736		135.03600		875.00000 
 43692.65567		 305.27265			43387.38302		67.15600		324.00000 
 43692.65567		 638.94831			43053.70736		135.03600		875.00000 
 43692.65567		 305.27265			43387.38302		67.15600		324.00000 
 43692.65567		 638.94831			43053.70736		135.03600		875.00000 
 43692.65567		 305.27265			43387.38302		67.15600		324.00000 
 43692.65567		 638.94831			43053.70736		135.03600		875.00000 
 43692.65567		 305.27265			43387.38302		67.15600		324.00000 
 43692.65567		 638.94831			43053.70736		135.03600		875.00000 
 43692.65567		 305.27265			43387.38302		67.15600		324.00000 
 43692.65567		 638.94831			43053.70736		135.03600		875.00000 
 43692.65567		 305.27265			43387.38302		67.15600		324.00000 
 43692.65567		 638.94831			43053.70736		135.03600		875.00000 
 43692.65567		 305.27265			43387.38302		67.15600		324.00000 
 43692.65567		 638.94831			43053.70736		135.03600		875.00000 
 43692.65567		 305.27265			43387.38302		67.15600		324.00000 
 43692.65567		 638.94831			43053.70736		135.03600		875.00000 
 43692.65567		 305.27265			43387.38302		67.15600		324.00000 
 43692.65567		 638.94831			43053.70736		135.03600		875.00000 
 43692.65567		 305.27265			43387.38302		67.15600		324.00000 
 43692.65567		 638.94831			43053.70736		135.03600		875.00000 
 43692.65567		 305.27265			43387.38302		67.15600		324.00000 
 43692.65567		 638.94831			43053.70736		135.03600		875.00000 
 43692.65567		 305.27265			43387.38302		67.15600		324.00000 
 43692.65567		 638.94831			43053.70736		135.03600		875.00000 
 43692.65567		 305.27265			43387.38302		67.15600		324.00000 
 43692.65567		 638.94831			43053.70736		135.03600		875.00000 
 43692.65567		 305.27265			43387.38302		67.15600		324.00000 
 43692.65567		 638.94831			43053.70736		135.03600		875.00000 
 43692.65567		 305.27265			43387.38302		67.15600		324.00000 
 43692.65567		 638.94831			43053.70736		135.03600		875.00000 
 43692.65567		 305.27265			43387.38302		67.15600		324.00000 
 43692.65567		 638.94831			43053.70736		135.03600		875.00000 
 43692.65567		 305.27265			43387.38302		67.15600		324.00000 
 43692.65567		 638.94831			43053.70736		135.03600		875.00000 
 43692.65567		 305.27265			43387.38302		67.15600		324.00000 
 43692.65567		 638.94831			43053.70736		135.03600		875.00000 
 43692.65567		 305.27265			43387.38302		67.15600		324.00000 
 43692.65567		 638.94831			43053.70736		135.03600		875.00000 
 43692.65567		 305.27265			43387.38302		67.15600		324.00000 
 43692.65567		 638.94831			43053.70736		135.03600		875.00000 
 43692.65567		 305.27265			43387.38302		67.15600		324.00000 
 43692.65567		 638.94831			43053.70736		135.03600		875.00000 
 43692.65567		 305.27265			43387.38302		67.15600		324.00000 
 43692.65567		 638.94831			43053.70736		135.03600		875.00000 
 43692.65567		 305.27265			43387.38302		67.15600		324.00000 
 43692.65567		 638.94831			43053.70736		135.03600		875.00000 
 43692.65567		 305.27265			43387.38302		67.15600		324.00000 
 43692.65567		 638.94831			43053.70736		135.03600		875.00000 
 43692.65567		 305.27265			43387.38302		67.15600		324.00000 
 43692.65567		 638.94831			43053.70736		135.03600		875.00000 
 43692.65567		 305.27265			43387.38302		67.15600		324.00000 
 43692.65567		 638.94831			43053.70736		135.03600		875.00000 
 43692.65567		 305.27265			43387.38302		67.15600		324.00000 
 43692.65567		 638.94831			43053.70736		135.03600		875.00000 
 43692.65567		 305.27265			43387.38302		67.15600		324.00000 
 43692.65567		 638.94831			43053.70736		135.03600		875.00000 
 43692.65567		 305.27265			43387.38302		67.15600		324.00000 
 43692.65567		 638.94831			43053.70736		135.03600		875.00000 
 43692.65567		 305.27265			43387.38302		67.15600		324.00000 
 43692.65567		 638.94831			43053.70736		166.61000		875.00000 
 43692.65567		 305.27265			43387.38302		67.15600		324.00000 
 43692.65567		 638.94831			43053.70736		166.61000		875.00000 
 43692.65567		 305.27265			43387.38302		67.15600		324.00000 
 43692.65567		 638.94831			43053.70736		166.61000		875.00000 
 43692.65567		 305.27265			43387.38302		67.15600		324.00000 
 43692.65567		 638.94831			43053.70736		166.61000		875.00000 
 43692.65567		 305.27265			43387.38302		67.15600		324.00000 
 43692.65567		 638.94831			43053.70736		166.61000		875.00000 
 43692.65567		 305.27265			43387.38302		67.15600		324.00000 
 43692.65567		 638.94831			43053.70736		166.61000		875.00000 
 43692.65567		 305.27265			43387.38302		67.15600		324.00000 
 43692.65567		 638.94831			43053.70736		166.61000		875.00000 
 43692.65567		 305.27265			43387.38302		67.15600		324.00000 
 43692.65567		 638.94831			43053.70736		166.61000		875.00000 
 43692.65567		 305.27265			43387.38302		67.15600		324.00000 
 43692.65567		 638.94831			43053.70736		166.61000		875.00000 
 43692.65567		 305.27265			43387.38302		67.15600		324.00000 
 43692.65567		 638.94831			43053.70736		166.61000		875.00000 
 43692.65567		 305.27265			43387.38302		67.15600		324.00000 
 43692.65567		 638.94831			43053.70736		166.61000		875.00000 
 43692.65567		 305.27265			43387.38302		67.15600		324.00000 
 43692.65567		 638.94831			43053.70736		166.61000		875.00000 
 43692.65567		 305.27265			43387.38302		67.15600		324.00000 
 43692.65567		 638.94831			43053.70736		166.61000		875.00000 
 43692.65567		 305.27265			43387.38302		67.15600		324.00000 
 43692.65567		 638.94831			43053.70736		166.61000		875.00000 
 43692.65567		 305.27265			43387.38302		67.15600		324.00000 
 43692.65567		 638.94831			43053.70736		166.61000		875.00000 
 43692.65567		 305.27265			43387.38302		67.15600		324.00000 
 43692.65567		 638.94831			43053.70736		166.61000		875.00000 
 43692.65567		 305.27265			43387.38302		67.15600		324.00000 
 43692.65567		 638.94831			43053.70736		166.61000		875.00000 
 43692.65567		 305.27265			43387.38302		67.15600		324.00000 
 43692.65567		 638.94831			43053.70736		166.61000		875.00000 
 43692.65567		 305.27265			43387.38302		67.15600		324.00000 
 43692.65567		 638.94831			43053.70736		166.61000		875.00000 
 43692.65567		 305.27265			43387.38302		67.15600		324.00000 
 43692.65567		 638.94831			43053.70736		166.61000		875.00000 
 43692.65567		 305.27265			43387.38302		67.15600		324.00000 
 43692.65567		 638.94831			43053.70736		166.61000		875.00000 
 43692.65567		 305.27265			43387.38302		67.15600		324.00000 
 43692.65567		 638.94831			43053.70736		166.61000		875.00000 
 43692.65567		 305.27265			43387.38302		67.15600		324.00000 
 43692.65567		 638.94831			43053.70736		166.61000		875.00000 
 43692.65567		 305.27265			43387.38302		67.15600		324.00000 
 43692.65567		 638.94831			43053.70736		166.61000		875.00000 
 43692.65567		 305.27265			43387.38302		67.15600		324.00000 
 43692.65567		 638.94831			43053.70736		166.61000		875.00000 
 43692.65567		 305.27265			43387.38302		67.15600		324.00000 
 43692.65567		 638.94831			43053.70736		166.61000		875.00000 
 43692.65567		 305.27265			43387.38302		67.15600		324.00000 
 43692.65567		 638.94831			43053.70736		166.61000		875.00000 
 43692.65567		 305.27265			43387.38302		67.15600		324.00000 
 43692.65567		 638.94831			43053.70736		166.61000		875.00000 
 43692.65567		 305.27265			43387.38302		67.15600		324.00000 
 43692.65567		 638.94831			43053.70736		166.61000		875.00000 
 43692.65567		 305.27265			43387.38302		67.15600		324.00000 
 43692.65567		 638.94831			43053.70736		166.61000		875.00000 
 43692.65567		 305.27265			43387.38302		67.15600		324.00000 
 43692.65567		 638.94831			43053.70736		166.61000		875.00000 
 43692.65567		 305.27265			43387.38302		67.15600		324.00000 
 43692.65567		 638.94831			43053.70736		166.61000		875.00000 
 43692.65567		 305.27265			43387.38302		67.15600		324.00000 
 43692.65567		 638.94831			43053.70736		166.61000		875.00000 
 43692.65567		 305.27265			43387.38302		67.15600		324.00000 
 43692.65567		 638.94831			43053.70736		166.61000		875.00000 
 43692.65567		 305.27265			43387.38302		67.15600		324.00000 
 43692.65567		 638.94831			43053.70736		166.61000		875.00000 
 43692.65567		 305.27265			43387.38302		67.15600		324.00000 
 43692.65567		 638.94831			43053.70736		166.61000		875.00000 
 43692.65567		 305.27265			43387.38302		67.15600		324.00000 
 43692.65567		 638.94831			43053.70736		166.61000		875.00000 
 43692.65567		 305.27265			43387.38302		67.15600		324.00000 
 43692.65567		 638.94831			43053.70736		166.61000		875.00000 
 43692.65567		 305.27265			43387.38302		67.15600		324.00000 
 43692.65567		 638.94831			43053.70736		166.61000		875.00000 
 43692.65567		 305.27265			43387.38302		67.15600		324.00000 
 43692.65567		 638.94831			43053.70736		166.61000		875.00000 
 43692.65567		 305.27265			43387.38302		67.15600		324.00000 
 43692.65567		 638.94831			43053.70736		166.61000		875.00000 
 43692.65567		 305.27265			43387.38302		67.15600		324.00000 
 43692.65567		 638.94831			43053.70736		166.61000		875.00000 
 43692.65567		 305.27265			43387.38302		67.15600		324.00000 
 43692.65567		 638.94831			43053.70736		166.61000		875.00000 
 43692.65567		 305.27265			43387.38302		67.15600		324.00000 
 43692.65567		 638.94831			43053.70736		166.61000		875.00000 
 43692.65567		 305.27265			43387.38302		68.58800		324.00000 
 43692.65567		 638.94831			43053.70736		166.61000		875.00000 
 43692.65567		 305.27265			43387.38302		68.58800		324.00000 
 43692.65567		 638.94831			43053.70736		166.61000		875.00000 
 43692.65567		 305.27265			43387.38302		68.58800		324.00000 
 43692.65567		 638.94831			43053.70736		166.61000		875.00000 
 43692.65567		 305.27265			43387.38302		68.58800		324.00000 
 43692.65567		 638.94831			43053.70736		166.61000		875.00000 
 43692.65567		 305.27265			43387.38302		68.58800		324.00000 
 43692.65567		 638.94831			43053.70736		166.61000		875.00000 
 43692.65567		 305.27265			43387.38302		68.58800		324.00000 
 43692.65567		 638.94831			43053.70736		166.61000		875.00000 
 43692.65567		 305.27265			43387.38302		68.58800		324.00000 
 43692.65567		 638.94831			43053.70736		166.61000		875.00000 
 43692.65567		 305.27265			43387.38302		68.58800		324.00000 
 43692.65567		 638.94831			43053.70736		166.61000		875.00000 
 43692.65567		 305.27265			43387.38302		68.58800		324.00000 
 43692.65567		 638.94831			43053.70736		166.61000		875.00000 
 43692.65567		 305.27265			43387.38302		68.58800		324.00000 
 43692.65567		 638.94831			43053.70736		166.61000		875.00000 
 43692.65567		 305.27265			43387.38302		68.58800		324.00000 
 43692.65567		 638.94831			43053.70736		166.61000		875.00000 
 43692.65567		 305.27265			43387.38302		68.58800		324.00000 
 43692.65567		 638.94831			43053.70736		166.61000		875.00000 
 43692.65567		 305.27265			43387.38302		68.58800		324.00000 
 43692.65567		 638.94831			43053.70736		166.61000		875.00000 
 43692.65567		 305.27265			43387.38302		68.58800		324.00000 
 43692.65567		 638.94831			43053.70736		166.61000		875.00000 
 43692.65567		 305.27265			43387.38302		68.58800		324.00000 
 43692.65567		 638.94831			43053.70736		166.61000		875.00000 
 43692.65567		 305.27265			43387.38302		68.58800		324.00000 
 43692.65567		 638.94831			43053.70736		166.61000		875.00000 
 43692.65567		 305.27265			43387.38302		68.58800		324.00000 
 43692.65567		 638.94831			43053.70736		166.61000		875.00000 
 43692.65567		 305.27265			43387.38302		68.58800		324.00000 
 43692.65567		 638.94831			43053.70736		197.64000		875.00000 
 43692.65567		 305.27265			43387.38302		68.58800		324.00000 
 43692.65567		 638.94831			43053.70736		197.64000		875.00000 
 43692.65567		 305.27265			43387.38302		68.58800		324.00000 
 43692.65567		 638.94831			43053.70736		197.64000		875.00000 
 43692.65567		 305.27265			43387.38302		68.58800		324.00000 
 43692.65567		 638.94831			43053.70736		197.64000		875.00000 
 43692.65567		 305.27265			43387.38302		68.58800		324.00000 
 43692.65567		 638.94831			43053.70736		197.64000		875.00000 
 43692.65567		 305.27265			43387.38302		68.58800		324.00000 
 43692.65567		 638.94831			43053.70736		197.64000		875.00000 
 43692.65567		 305.27265			43387.38302		68.58800		324.00000 
 43692.65567		 638.94831			43053.70736		197.64000		875.00000 
 43692.65567		 305.27265			43387.38302		68.58800		324.00000 
 43692.65567		 638.94831			43053.70736		197.64000		875.00000 
 43692.65567		 305.27265			43387.38302		68.58800		324.00000 
 43692.65567		 638.94831			43053.70736		197.64000		875.00000 
 43692.65567		 305.27265			43387.38302		68.58800		324.00000 
 43692.65567		 638.94831			43053.70736		197.64000		875.00000 
 43692.65567		 305.27265			43387.38302		68.58800		324.00000 
 43692.65567		 638.94831			43053.70736		197.64000		875.00000 
 43692.65567		 305.27265			43387.38302		68.58800		324.00000 
 43692.65567		 638.94831			43053.70736		197.64000		875.00000 
 43692.65567		 305.27265			43387.38302		68.58800		324.00000 
 43692.65567		 638.94831			43053.70736		197.64000		875.00000 
 43692.65567		 305.27265			43387.38302		68.58800		324.00000 
 43692.65567		 638.94831			43053.70736		197.64000		875.00000 
 43692.65567		 305.27265			43387.38302		68.58800		324.00000 
 43692.65567		 638.94831			43053.70736		197.64000		875.00000 
 43692.65567		 305.27265			43387.38302		68.58800		324.00000 
 43692.65567		 638.94831			43053.70736		197.64000		875.00000 
 43692.65567		 305.27265			43387.38302		68.58800		324.00000 
 43692.65567		 638.94831			43053.70736		197.64000		875.00000 
 43692.65567		 305.27265			43387.38302		68.58800		324.00000 
 43692.65567		 638.94831			43053.70736		197.64000		875.00000 
 43692.65567		 305.27265			43387.38302		68.58800		324.00000 
 43692.65567		 638.94831			43053.70736		197.64000		875.00000 
 43692.65567		 305.27265			43387.38302		68.58800		324.00000 
 43692.65567		 638.94831			43053.70736		197.64000		875.00000 
 43692.65567		 305.27265			43387.38302		68.58800		324.00000 
 43692.65567		 638.94831			43053.70736		197.64000		875.00000 
 43692.65567		 305.27265			43387.38302		68.58800		324.00000 
 43692.65567		 638.94831			43053.70736		197.64000		875.00000 
 43692.65567		 305.27265			43387.38302		68.58800		324.00000 
 43692.65567		 638.94831			43053.70736		197.64000		875.00000 
 43692.65567		 305.27265			43387.38302		68.58800		324.00000 
 43692.65567		 638.94831			43053.70736		197.64000		875.00000 
 43692.65567		 305.27265			43387.38302		68.58800		324.00000 
 43692.65567		 638.94831			43053.70736		197.64000		875.00000 
 43692.65567		 305.27265			43387.38302		68.58800		324.00000 
 43692.65567		 638.94831			43053.70736		197.64000		875.00000 
 43692.65567		 305.27265			43387.38302		68.58800		324.00000 
 43692.65567		 638.94831			43053.70736		197.64000		875.00000 
 43692.65567		 305.27265			43387.38302		68.58800		324.00000 
 43692.65567		 638.94831			43053.70736		197.64000		875.00000 
 43692.65567		 305.27265			43387.38302		68.58800		324.00000 
 43692.65567		 638.94831			43053.70736		197.64000		875.00000 
 43692.65567		 305.27265			43387.38302		68.58800		324.00000 
 43692.65567		 638.94831			43053.70736		197.64000		875.00000 
 43692.65567		 305.27265			43387.38302		68.58800		324.00000 
 43692.65567		 638.94831			43053.70736		197.64000		875.00000 
 43692.65567		 305.27265			43387.38302		68.58800		324.00000 
 43692.65567		 638.94831			43053.70736		197.64000		875.00000 
 43692.65567		 305.27265			43387.38302		68.58800		324.00000 
 43692.65567		 638.94831			43053.70736		197.64000		875.00000 
 43692.65567		 305.27265			43387.38302		68.58800		324.00000 
 43692.65567		 638.94831			43053.70736		197.64000		875.00000 
 43692.65567		 305.27265			43387.38302		68.58800		324.00000 
 43692.65567		 638.94831			43053.70736		197.64000		875.00000 
 43692.65567		 305.27265			43387.38302		68.58800		324.00000 
 43692.65567		 638.94831			43053.70736		197.64000		875.00000 
 43692.65567		 305.27265			43387.38302		68.58800		324.00000 
 43692.65567		 638.94831			43053.70736		197.64000		875.00000 
 43692.65567		 305.27265			43387.38302		68.58800		324.00000 
 43692.65567		 638.94831			43053.70736		197.64000		875.00000 
 43692.65567		 305.27265			43387.38302		68.58800		324.00000 
 43692.65567		 638.94831			43053.70736		197.64000		875.00000 
 43692.65567		 305.27265			43387.38302		68.58800		324.00000 
 43692.65567		 638.94831			43053.70736		197.64000		875.00000 
 43692.65567		 305.27265			43387.38302		68.58800		324.00000 
 43692.65567		 638.94831			43053.70736		197.64000		875.00000 
 43692.65567		 305.27265			43387.38302		68.58800		324.00000 
 43692.65567		 638.94831			43053.70736		197.64000		875.00000 
 43692.65567		 305.27265			43387.38302		68.58800		324.00000 
 43692.65567		 638.94831			43053.70736		197.64000		875.00000 
 43692.65567		 305.27265			43387.38302		68.58800		324.00000 
 43692.65567		 638.94831			43053.70736		197.64000		875.00000 
 43692.65567		 305.27265			43387.38302		68.58800		324.00000 
 43692.65567		 638.94831			43053.70736		197.64000		875.00000 
 43692.65567		 305.27265			43387.38302		68.58800		324.00000 
 43692.65567		 638.94831			43053.70736		197.64000		875.00000 
 43692.65567		 305.27265			43387.38302		68.58800		324.00000 
 43692.65567		 638.94831			43053.70736		197.64000		875.00000 
 43692.65567		 305.27265			43387.38302		68.58800		324.00000 
 43692.65567		 638.94831			43053.70736		197.64000		875.00000 
 43692.65567		 305.27265			43387.38302		68.58800		324.00000 
 43692.65567		 638.94831			43053.70736		197.64000		875.00000 
 43692.65567		 305.27265			43387.38302		68.58800		324.00000 
 43692.65567		 638.94831			43053.70736		197.64000		875.00000 
 43692.65567		 305.27265			43387.38302		68.58800		324.00000 
 43692.65567		 638.94831			43053.70736		197.64000		875.00000 
 43692.65567		 305.27265			43387.38302		68.58800		324.00000 
 43692.65567		 638.94831			43053.70736		197.64000		875.00000 
 43692.65567		 305.27265			43387.38302		68.58800		324.00000 
 43692.65567		 638.94831			43053.70736		197.64000		875.00000 
 43692.65567		 305.27265			43387.38302		68.58800		324.00000 
 43692.65567		 638.94831			43053.70736		197.64000		875.00000 
 43692.65567		 305.27265			43387.38302		68.58800		324.00000 
 43692.65567		 638.94831			43053.70736		197.64000		875.00000 
 43692.65567		 305.27265			43387.38302		68.58800		324.00000 
 43692.65567		 638.94831			43053.70736		197.64000		875.00000 
 43692.65567		 305.27265			43387.38302		68.58800		324.00000 
 43692.65567		 638.94831			43053.70736		197.64000		875.00000 
 43692.65567		 305.27265			43387.38302		68.58800		324.00000 
 43692.65567		 638.94831			43053.70736		197.64000		875.00000 
 43692.65567		 305.27265			43387.38302		68.58800		324.00000 
 43692.65567		 638.94831			43053.70736		197.64000		875.00000 
 43692.65567		 305.27265			43387.38302		68.58800		324.00000 
 43692.65567		 638.94831			43053.70736		197.64000		875.00000 
 43692.65567		 305.27265			43387.38302		68.58800		324.00000 
 43692.65567		 638.94831			43053.70736		197.64000		875.00000 
 43692.65567		 305.27265			43387.38302		68.58800		324.00000 
 43692.65567		 638.94831			43053.70736		197.64000		875.00000 
 43692.65567		 305.27265			43387.38302		68.58800		324.00000 
 43692.65567		 638.94831			43053.70736		197.64000		875.00000 
 43692.65567		 305.27265			43387.38302		68.58800		324.00000 
 43692.65567		 638.94831			43053.70736		197.64000		875.00000 
 43692.65567		 305.27265			43387.38302		68.58800		324.00000 
 43692.65567		 638.94831			43053.70736		197.64000		875.00000 
 43692.65567		 305.27265			43387.38302		68.58800		324.00000 
 43692.65567		 638.94831			43053.70736		209.16200		875.00000 
 43692.65567		 305.27265			43387.38302		68.58800		324.00000 
 43692.65567		 638.94831			43053.70736		209.16200		875.00000 
 43692.65567		 305.27265			43387.38302		68.58800		324.00000 
 43692.65567		 638.94831			43053.70736		209.16200		875.00000 
 43692.65567		 305.27265			43387.38302		68.58800		324.00000 
 43692.65567		 638.94831			43053.70736		209.16200		875.00000 
 43692.65567		 305.27265			43387.38302		68.58800		324.00000 
 43692.65567		 638.94831			43053.70736		209.16200		875.00000 
 43692.65567		 305.27265			43387.38302		68.58800		324.00000 
 43692.65567		 638.94831			43053.70736		209.16200		875.00000 
 43692.65567		 305.27265			43387.38302		68.58800		324.00000 
 43692.65567		 638.94831			43053.70736		209.16200		875.00000 
 43692.65567		 305.27265			43387.38302		68.58800		324.00000 
 43692.65567		 638.94831			43053.70736		209.16200		875.00000 
 43692.65567		 305.27265			43387.38302		68.58800		324.00000 
 43692.65567		 638.94831			43053.70736		209.16200		875.00000 
 43692.65567		 305.27265			43387.38302		68.58800		324.00000 
 43692.65567		 638.94831			43053.70736		209.16200		875.00000 
 43692.65567		 305.27265			43387.38302		68.58800		324.00000 
 43692.65567		 638.94831			43053.70736		209.16200		875.00000 
 43692.65567		 305.27265			43387.38302		68.58800		324.00000 
 43692.65567		 638.94831			43053.70736		209.16200		875.00000 
 43692.65567		 305.27265			43387.38302		68.58800		324.00000 
 43692.65567		 638.94831			43053.70736		209.16200		875.00000 
 43692.65567		 305.27265			43387.38302		68.58800		324.00000 
 43692.65567		 638.94831			43053.70736		209.16200		875.00000 
 43692.65567		 305.27265			43387.38302		68.58800		324.00000 
 43692.65567		 638.94831			43053.70736		209.16200		875.00000 
 43692.65567		 305.27265			43387.38302		68.58800		324.00000 
 43692.65567		 638.94831			43053.70736		209.16200		875.00000 
 43692.65567		 305.27265			43387.38302		68.58800		324.00000 
 43692.65567		 638.94831			43053.70736		209.16200		875.00000 
 43692.65567		 305.27265			43387.38302		68.58800		324.00000 
 43692.65567		 638.94831			43053.70736		209.16200		875.00000 
 43692.65567		 305.27265			43387.38302		68.58800		324.00000 
 43692.65567		 638.94831			43053.70736		209.16200		875.00000 
 43692.65567		 305.27265			43387.38302		68.58800		324.00000 
 43692.65567		 638.94831			43053.70736		209.16200		875.00000 
 43692.65567		 305.27265			43387.38302		68.58800		324.00000 
 43692.65567		 638.94831			43053.70736		209.16200		875.00000 
 43692.65567		 305.27265			43387.38302		68.58800		324.00000 
 43692.65567		 638.94831			43053.70736		209.16200		875.00000 
 43692.65567		 305.27265			43387.38302		68.58800		324.00000 
 43692.65567		 638.94831			43053.70736		209.16200		875.00000 
 43692.65567		 305.27265			43387.38302		68.58800		324.00000 
 43692.65567		 638.94831			43053.70736		209.16200		875.00000 
 43692.65567		 305.27265			43387.38302		68.58800		324.00000 
 43692.65567		 638.94831			43053.70736		209.16200		875.00000 
 43692.65567		 305.27265			43387.38302		68.58800		324.00000 
 43692.65567		 638.94831			43053.70736		209.16200		875.00000 
 43692.65567		 305.27265			43387.38302		68.58800		324.00000 
 43692.65567		 638.94831			43053.70736		209.16200		875.00000 
 43692.65567		 305.27265			43387.38302		68.58800		324.00000 
 43692.65567		 638.94831			43053.70736		209.16200		875.00000 
 43692.65567		 305.27265			43387.38302		68.58800		324.00000 
 43692.65567		 638.94831			43053.70736		209.16200		875.00000 
 43692.65567		 305.27265			43387.38302		68.58800		324.00000 
 43692.65567		 638.94831			43053.70736		209.16200		875.00000 
 43692.65567		 305.27265			43387.38302		68.58800		324.00000 
 43692.65567		 638.94831			43053.70736		209.16200		875.00000 
 43692.65567		 305.27265			43387.38302		68.58800		324.00000 
 43692.65567		 638.94831			43053.70736		209.16200		875.00000 
 43692.65567		 305.27265			43387.38302		68.58800		324.00000 
 43692.65567		 638.94831			43053.70736		209.16200		875.00000 
 43692.65567		 305.27265			43387.38302		68.58800		324.00000 
 43692.65567		 638.94831			43053.70736		209.16200		875.00000 
 43692.65567		 305.27265			43387.38302		68.58800		324.00000 
 43692.65567		 638.94831			43053.70736		209.16200		875.00000 
 43692.65567		 305.27265			43387.38302		68.58800		324.00000 
 43692.65567		 638.94831			43053.70736		209.16200		875.00000 
 43692.65567		 305.27265			43387.38302		68.58800		324.00000 
 43692.65567		 638.94831			43053.70736		209.16200		875.00000 
 43692.65567		 305.27265			43387.38302		68.58800		324.00000 
 43692.65567		 638.94831			43053.70736		209.16200		875.00000 
 43692.65567		 305.27265			43387.38302		68.58800		324.00000 
 43692.65567		 638.94831			43053.70736		209.16200		875.00000 
 43692.65567		 305.27265			43387.38302		68.58800		324.00000 
 43692.65567		 638.94831			43053.70736		209.16200		875.00000 
 43692.65567		 305.27265			43387.38302		68.58800		324.00000 
 43692.65567		 638.94831			43053.70736		209.16200		875.00000 
 43692.65567		 305.27265			43387.38302		68.58800		324.00000 
 43692.65567		 638.94831			43053.70736		209.16200		875.00000 
 43692.65567		 305.27265			43387.38302		68.58800		324.00000 
 43692.65567		 638.94831			43053.70736		209.16200		875.00000 
 43692.65567		 305.27265			43387.38302		68.58800		324.00000 
 43692.65567		 638.94831			43053.70736		209.16200		875.00000 
 43692.65567		 305.27265			43387.38302		68.58800		324.00000 
 43692.65567		 638.94831			43053.70736		209.16200		875.00000 
 43692.65567		 305.27265			43387.38302		68.58800		324.00000 
 43692.65567		 638.94831			43053.70736		209.16200		875.00000 
 43692.65567		 305.27265			43387.38302		68.58800		324.00000 
 43692.65567		 638.94831			43053.70736		209.16200		875.00000 
 43692.65567		 305.27265			43387.38302		68.58800		324.00000 
 43692.65567		 638.94831			43053.70736		209.16200		875.00000 
 43692.65567		 305.27265			43387.38302		68.58800		324.00000 
 43692.65567		 638.94831			43053.70736		209.16200		875.00000 
 43692.65567		 305.27265			43387.38302		68.58800		324.00000 
 43692.65567		 638.94831			43053.70736		209.16200		875.00000 
 43692.65567		 305.27265			43387.38302		68.58800		324.00000 
 43692.65567		 638.94831			43053.70736		209.16200		875.00000 
 43692.65567		 305.27265			43387.38302		68.58800		324.00000 
 43692.65567		 638.94831			43053.70736		209.16200		875.00000 
 43692.65567		 305.27265			43387.38302		68.58800		324.00000 
 43692.65567		 638.94831			43053.70736		209.16200		875.00000 
 43692.65567		 305.27265			43387.38302		68.58800		324.00000 
 43692.65567		 638.94831			43053.70736		209.16200		875.00000 
 43692.65567		 305.27265			43387.38302		68.58800		324.00000 
 43692.65567		 638.94831			43053.70736		209.16200		875.00000 
 43692.65567		 305.27265			43387.38302		68.58800		324.00000 
 43692.65567		 638.94831			43053.70736		209.16200		875.00000 
 43692.65567		 305.27265			43387.38302		68.58800		324.00000 
 43692.65567		 638.94831			43053.70736		209.16200		875.00000 
 43692.65567		 305.27265			43387.38302		68.58800		324.00000 
 43692.65567		 638.94831			43053.70736		209.16200		875.00000 
 43692.65567		 305.27265			43387.38302		68.58800		324.00000 
 43692.65567		 638.94831			43053.70736		209.16200		875.00000 
 43692.65567		 305.27265			43387.38302		68.58800		324.00000 
 43692.65567		 638.94831			43053.70736		209.16200		875.00000 
 43692.65567		 305.27265			43387.38302		68.58800		324.00000 
 43692.65567		 638.94831			43053.70736		209.16200		875.00000 
 43692.65567		 305.27265			43387.38302		68.58800		324.00000 
 43692.65567		 638.94831			43053.70736		209.16200		875.00000 
 43692.65567		 305.27265			43387.38302		68.58800		324.00000 
 43692.65567		 638.94831			43053.70736		209.16200		875.00000 
 43692.65567		 305.27265			43387.38302		68.58800		324.00000 
 43692.65567		 638.94831			43053.70736		209.16200		875.00000 
 43692.65567		 305.27265			43387.38302		68.58800		324.00000 
 43692.65567		 638.94831			43053.70736		213.68800		875.00000 
 43692.65567		 305.27265			43387.38302		68.58800		324.00000 
 43692.65567		 638.94831			43053.70736		213.68800		875.00000 
 43692.65567		 305.27265			43387.38302		68.58800		324.00000 
 43692.65567		 638.94831			43053.70736		213.68800		875.00000 
 43692.65567		 305.27265			43387.38302		68.58800		324.00000 
 43692.65567		 638.94831			43053.70736		213.68800		875.00000 
 43692.65567		 305.27265			43387.38302		68.58800		324.00000 
 43692.65567		 638.94831			43053.70736		213.68800		875.00000 
 43692.65567		 305.27265			43387.38302		68.58800		324.00000 
 43692.65567		 638.94831			43053.70736		213.68800		875.00000 
 43692.65567		 305.27265			43387.38302		68.58800		324.00000 
 43692.65567		 638.94831			43053.70736		213.68800		875.00000 
 43692.65567		 305.27265			43387.38302		68.58800		324.00000 
 43692.65567		 638.94831			43053.70736		213.68800		875.00000 
 43692.65567		 305.27265			43387.38302		68.58800		324.00000 
 43692.65567		 638.94831			43053.70736		213.68800		875.00000 
 43692.65567		 305.27265			43387.38302		68.58800		324.00000 
 43692.65567		 638.94831			43053.70736		213.68800		875.00000 
 43692.65567		 305.27265			43387.38302		68.58800		324.00000 
 43692.65567		 638.94831			43053.70736		213.68800		875.00000 
 43692.65567		 305.27265			43387.38302		68.58800		324.00000 
 43692.65567		 638.94831			43053.70736		213.68800		875.00000 
 43692.65567		 305.27265			43387.38302		68.58800		324.00000 
 43692.65567		 638.94831			43053.70736		213.68800		875.00000 
 43692.65567		 305.27265			43387.38302		68.58800		324.00000 
 43692.65567		 638.94831			43053.70736		213.68800		875.00000 
 43692.65567		 305.27265			43387.38302		68.58800		324.00000 
 43692.65567		 638.94831			43053.70736		213.68800		875.00000 
 43692.65567		 305.27265			43387.38302		68.58800		324.00000 
 43692.65567		 638.94831			43053.70736		213.68800		875.00000 
 43692.65567		 305.27265			43387.38302		68.58800		324.00000 
 43692.65567		 638.94831			43053.70736		213.68800		875.00000 
 43692.65567		 305.27265			43387.38302		68.58800		324.00000 
 43692.65567		 638.94831			43053.70736		213.68800		875.00000 
 43692.65567		 305.27265			43387.38302		68.58800		324.00000 
 43692.65567		 638.94831			43053.70736		213.68800		875.00000 
 43692.65567		 305.27265			43387.38302		68.58800		324.00000 
 43692.65567		 638.94831			43053.70736		213.68800		875.00000 
 43692.65567		 305.27265			43387.38302		68.58800		324.00000 
 43692.65567		 638.94831			43053.70736		213.68800		875.00000 
 43692.65567		 305.27265			43387.38302		68.58800		324.00000 
 43692.65567		 638.94831			43053.70736		213.68800		875.00000 
 43692.65567		 305.27265			43387.38302		68.58800		324.00000 
 43692.65567		 638.94831			43053.70736		213.68800		875.00000 
 43692.65567		 305.27265			43387.38302		68.58800		324.00000 
 43692.65567		 638.94831			43053.70736		213.68800		875.00000 
 43692.65567		 305.27265			43387.38302		68.58800		324.00000 
 43692.65567		 638.94831			43053.70736		213.68800		875.00000 
 43692.65567		 305.27265			43387.38302		68.58800		324.00000 
 43692.65567		 638.94831			43053.70736		213.68800		875.00000 
 43692.65567		 305.27265			43387.38302		68.58800		324.00000 
 43692.65567		 638.94831			43053.70736		213.68800		875.00000 
 43692.65567		 305.27265			43387.38302		68.58800		324.00000 
 43692.65567		 638.94831			43053.70736		213.68800		875.00000 
 43692.65567		 305.27265			43387.38302		68.58800		324.00000 
 43692.65567		 638.94831			43053.70736		213.68800		875.00000 
 43692.65567		 305.27265			43387.38302		68.58800		324.00000 
 43692.65567		 638.94831			43053.70736		213.68800		875.00000 
 43692.65567		 305.27265			43387.38302		68.58800		324.00000 
 43692.65567		 638.94831			43053.70736		213.68800		875.00000 
 43692.65567		 305.27265			43387.38302		68.58800		324.00000 
 43692.65567		 638.94831			43053.70736		213.68800		875.00000 
 43692.65567		 305.27265			43387.38302		68.58800		324.00000 
 43692.65567		 638.94831			43053.70736		213.68800		875.00000 
 43692.65567		 305.27265			43387.38302		68.58800		324.00000 
 43692.65567		 638.94831			43053.70736		213.68800		875.00000 
 43692.65567		 305.27265			43387.38302		68.58800		324.00000 
 43692.65567		 638.94831			43053.70736		213.68800		875.00000 
 43692.65567		 305.27265			43387.38302		68.58800		324.00000 
 43692.65567		 638.94831			43053.70736		213.68800		875.00000 
 43692.65567		 305.27265			43387.38302		68.58800		324.00000 
 43692.65567		 638.94831			43053.70736		213.68800		875.00000 
 43692.65567		 305.27265			43387.38302		68.58800		324.00000 
 43692.65567		 638.94831			43053.70736		213.68800		875.00000 
 43692.65567		 305.27265			43387.38302		68.58800		324.00000 
 43692.65567		 638.94831			43053.70736		213.68800		875.00000 
 43692.65567		 305.27265			43387.38302		68.58800		324.00000 
 43692.65567		 638.94831			43053.70736		213.68800		875.00000 
 43692.65567		 305.27265			43387.38302		68.58800		324.00000 
 43692.65567		 638.94831			43053.70736		213.68800		875.00000 
 43692.65567		 305.27265			43387.38302		68.58800		324.00000 
 43692.65567		 638.94831			43053.70736		213.68800		875.00000 
 43692.65567		 305.27265			43387.38302		68.58800		324.00000 
 43692.65567		 638.94831			43053.70736		213.68800		875.00000 
 43692.65567		 305.27265			43387.38302		68.58800		324.00000 
 43692.65567		 638.94831			43053.70736		213.68800		875.00000 
 43692.65567		 305.27265			43387.38302		68.58800		324.00000 
 43692.65567		 638.94831			43053.70736		213.68800		875.00000 
 43692.65567		 305.27265			43387.38302		68.58800		324.00000 
 43692.65567		 638.94831			43053.70736		213.68800		875.00000 
 43692.65567		 305.27265			43387.38302		68.58800		324.00000 
 43692.65567		 638.94831			43053.70736		213.68800		875.00000 
 43692.65567		 305.27265			43387.38302		68.58800		324.00000 
 43692.65567		 638.94831			43053.70736		213.68800		875.00000 
 43692.65567		 305.27265			43387.38302		68.58800		324.00000 
 43692.65567		 638.94831			43053.70736		213.68800		875.00000 
 43692.65567		 305.27265			43387.38302		68.58800		324.00000 
 43692.65567		 638.94831			43053.70736		213.68800		875.00000 
 43692.65567		 305.27265			43387.38302		68.58800		324.00000 
 43692.65567		 638.94831			43053.70736		213.68800		875.00000 
 43692.65567		 305.27265			43387.38302		68.58800		324.00000 
 43692.65567		 638.94831			43053.70736		213.68800		875.00000 
 43692.65567		 305.27265			43387.38302		68.58800		324.00000 
 43692.65567		 638.94831			43053.70736		213.68800		875.00000 
 43692.65567		 305.27265			43387.38302		68.58800		324.00000 
 43692.65567		 638.94831			43053.70736		213.68800		875.00000 
 43692.65567		 305.27265			43387.38302		68.58800		324.00000 
 43692.65567		 638.94831			43053.70736		213.68800		875.00000 
 43692.65567		 305.27265			43387.38302		68.58800		324.00000 
 43692.65567		 638.94831			43053.70736		213.68800		875.00000 
 43692.65567		 305.27265			43387.38302		68.58800		324.00000 
 43692.65567		 638.94831			43053.70736		213.68800		875.00000 
 43692.65567		 305.27265			43387.38302		68.58800		324.00000 
 43692.65567		 638.94831			43053.70736		213.68800		875.00000 
 43692.65567		 305.27265			43387.38302		68.58800		324.00000 
 43692.65567		 638.94831			43053.70736		213.68800		875.00000 
 43692.65567		 305.27265			43387.38302		68.58800		324.00000 
 43692.65567		 638.94831			43053.70736		213.68800		875.00000 
 43692.65567		 305.27265			43387.38302		68.58800		324.00000 
 43692.65567		 638.94831			43053.70736		213.68800		875.00000 
 43692.65567		 305.27265			43387.38302		68.58800		324.00000 
 43692.65567		 638.94831			43053.70736		213.68800		875.00000 
 43692.65567		 305.27265			43387.38302		68.58800		324.00000 
 43692.65567		 638.94831			43053.70736		213.68800		875.00000 
 43692.65567		 305.27265			43387.38302		68.58800		324.00000 
 43692.65567		 638.94831			43053.70736		213.68800		875.00000 
 43692.65567		 305.27265			43387.38302		68.58800		324.00000 
 43692.65567		 638.94831			43053.70736		213.68800		875.00000 
 43692.65567		 305.27265			43387.38302		68.58800		324.00000 
 43692.65567		 638.94831			43053.70736		215.98000		875.00000 
 43692.65567		 305.27265			43387.38302		68.58800		324.00000 
 43692.65567		 638.94831			43053.70736		215.98000		875.00000 
 43692.65567		 305.27265			43387.38302		68.58800		324.00000 
 43692.65567		 638.94831			43053.70736		215.98000		875.00000 
 43692.65567		 305.27265			43387.38302		68.58800		324.00000 
 43692.65567		 638.94831			43053.70736		215.98000		875.00000 
 43692.65567		 305.27265			43387.38302		68.58800		324.00000 
 43692.65567		 638.94831			43053.70736		215.98000		875.00000 
 43692.65567		 305.27265			43387.38302		68.58800		324.00000 
 43692.65567		 638.94831			43053.70736		215.98000		875.00000 
 43692.65567		 305.27265			43387.38302		68.58800		324.00000 
 43692.65567		 638.94831			43053.70736		215.98000		875.00000 
 43692.65567		 305.27265			43387.38302		68.58800		324.00000 
 43692.65567		 638.94831			43053.70736		215.98000		875.00000 
 43692.65567		 305.27265			43387.38302		68.58800		324.00000 
 43692.65567		 638.94831			43053.70736		215.98000		875.00000 
 43692.65567		 305.27265			43387.38302		68.58800		324.00000 
 43692.65567		 638.94831			43053.70736		215.98000		875.00000 
 43692.65567		 305.27265			43387.38302		68.58800		324.00000 
 43692.65567		 638.94831			43053.70736		215.98000		875.00000 
 43692.65567		 305.27265			43387.38302		68.58800		324.00000 
 43692.65567		 638.94831			43053.70736		215.98000		875.00000 
 43692.65567		 305.27265			43387.38302		68.58800		324.00000 
 43692.65567		 638.94831			43053.70736		215.98000		875.00000 
 43692.65567		 305.27265			43387.38302		68.58800		324.00000 
 43692.65567		 638.94831			43053.70736		215.98000		875.00000 
 43692.65567		 305.27265			43387.38302		68.58800		324.00000 
 43692.65567		 638.94831			43053.70736		215.98000		875.00000 
 43692.65567		 305.27265			43387.38302		68.58800		324.00000 
 43692.65567		 638.94831			43053.70736		215.98000		875.00000 
 43692.65567		 305.27265			43387.38302		68.58800		324.00000 
 43692.65567		 638.94831			43053.70736		215.98000		875.00000 
 43692.65567		 305.27265			43387.38302		68.58800		324.00000 
 43692.65567		 638.94831			43053.70736		215.98000		875.00000 
 43692.65567		 305.27265			43387.38302		68.58800		324.00000 
 43692.65567		 638.94831			43053.70736		215.98000		875.00000 
 43692.65567		 305.27265			43387.38302		68.58800		324.00000 
 43692.65567		 638.94831			43053.70736		215.98000		875.00000 
 43692.65567		 305.27265			43387.38302		68.58800		324.00000 
 43692.65567		 638.94831			43053.70736		215.98000		875.00000 
 43692.65567		 305.27265			43387.38302		68.58800		324.00000 
 43692.65567		 638.94831			43053.70736		215.98000		875.00000 
 43692.65567		 305.27265			43387.38302		68.58800		324.00000 
 43692.65567		 638.94831			43053.70736		215.98000		875.00000 
 43692.65567		 305.27265			43387.38302		68.58800		324.00000 
 43692.65567		 638.94831			43053.70736		215.98000		875.00000 
 43692.65567		 305.27265			43387.38302		68.58800		324.00000 
 43692.65567		 638.94831			43053.70736		215.98000		875.00000 
 43692.65567		 305.27265			43387.38302		68.58800		324.00000 
 43692.65567		 638.94831			43053.70736		215.98000		875.00000 
 43692.65567		 305.27265			43387.38302		68.58800		324.00000 
 43692.65567		 638.94831			43053.70736		215.98000		875.00000 
 43692.65567		 305.27265			43387.38302		68.58800		324.00000 
 43692.65567		 638.94831			43053.70736		215.98000		875.00000 
 43692.65567		 305.27265			43387.38302		68.58800		324.00000 
 43692.65567		 638.94831			43053.70736		215.98000		875.00000 
 43692.65567		 305.27265			43387.38302		68.58800		324.00000 
 43692.65567		 638.94831			43053.70736		215.98000		875.00000 
 43692.65567		 305.27265			43387.38302		68.58800		324.00000 
 43692.65567		 638.94831			43053.70736		215.98000		875.00000 
 43692.65567		 305.27265			43387.38302		68.58800		324.00000 
 43692.65567		 638.94831			43053.70736		215.98000		875.00000 
 43692.65567		 305.27265			43387.38302		68.58800		324.00000 
 43692.65567		 638.94831			43053.70736		215.98000		875.00000 
 43692.65567		 305.27265			43387.38302		68.58800		324.00000 
 43692.65567		 638.94831			43053.70736		215.98000		875.00000 
 43692.65567		 305.27265			43387.38302		68.58800		324.00000 
 43692.65567		 638.94831			43053.70736		215.98000		875.00000 
 43692.65567		 305.27265			43387.38302		68.58800		324.00000 
 43692.65567		 638.94831			43053.70736		215.98000		875.00000 
 43692.65567		 305.27265			43387.38302		68.58800		324.00000 
 43692.65567		 638.94831			43053.70736		215.98000		875.00000 
 43692.65567		 305.27265			43387.38302		68.58800		324.00000 
 43692.65567		 638.94831			43053.70736		215.98000		875.00000 
 43692.65567		 305.27265			43387.38302		68.58800		324.00000 
 43692.65567		 638.94831			43053.70736		215.98000		875.00000 
 43692.65567		 305.27265			43387.38302		68.58800		324.00000 
 43692.65567		 638.94831			43053.70736		215.98000		875.00000 
 43692.65567		 305.27265			43387.38302		68.58800		324.00000 
 43692.65567		 638.94831			43053.70736		215.98000		875.00000 
 43692.65567		 305.27265			43387.38302		68.58800		324.00000 
 43692.65567		 638.94831			43053.70736		215.98000		875.00000 
 43692.65567		 305.27265			43387.38302		68.58800		324.00000 
 43692.65567		 638.94831			43053.70736		215.98000		875.00000 
 43692.65567		 305.27265			43387.38302		68.58800		324.00000 
 43692.65567		 638.94831			43053.70736		215.98000		875.00000 
 43692.65567		 305.27265			43387.38302		68.58800		324.00000 
 43692.65567		 638.94831			43053.70736		215.98000		875.00000 
 43692.65567		 305.27265			43387.38302		68.58800		324.00000 
 43692.65567		 638.94831			43053.70736		215.98000		875.00000 
 43692.65567		 305.27265			43387.38302		68.58800		324.00000 
 43692.65567		 638.94831			43053.70736		215.98000		875.00000 
 43692.65567		 305.27265			43387.38302		68.58800		324.00000 
 43692.65567		 638.94831			43053.70736		215.98000		875.00000 
 43692.65567		 305.27265			43387.38302		68.58800		324.00000 
 43692.65567		 638.94831			43053.70736		215.98000		875.00000 
 43692.65567		 305.27265			43387.38302		68.58800		324.00000 
 43692.65567		 638.94831			43053.70736		215.98000		875.00000 
 43692.65567		 305.27265			43387.38302		68.58800		324.00000 
 43692.65567		 638.94831			43053.70736		215.98000		875.00000 
 43692.65567		 305.27265			43387.38302		68.58800		324.00000 
 43692.65567		 638.94831			43053.70736		215.98000		875.00000 
 43692.65567		 305.27265			43387.38302		68.58800		324.00000 
 43692.65567		 638.94831			43053.70736		215.98000		875.00000 
 43692.65567		 305.27265			43387.38302		68.58800		324.00000 
 43692.65567		 638.94831			43053.70736		215.98000		875.00000 
 43692.65567		 305.27265			43387.38302		68.58800		324.00000 
 43692.65567		 638.94831			43053.70736		215.98000		875.00000 
 43692.65567		 305.27265			43387.38302		68.58800		324.00000 
 43692.65567		 638.94831			43053.70736		215.98000		875.00000 
 43692.65567		 305.27265			43387.38302		68.58800		324.00000 
 43692.65567		 638.94831			43053.70736		215.98000		875.00000 
 43692.65567		 305.27265			43387.38302		68.58800		324.00000 
 43692.65567		 638.94831			43053.70736		215.98000		875.00000 
 43692.65567		 305.27265			43387.38302		68.58800		324.00000 
 43692.65567		 638.94831			43053.70736		215.98000		875.00000 
 43692.65567		 305.27265			43387.38302		68.58800		324.00000 
 43692.65567		 638.94831			43053.70736		215.98000		875.00000 
 43692.65567		 305.27265			43387.38302		68.58800		324.00000 
 43692.65567		 638.94831			43053.70736		215.98000		875.00000 
 43692.65567		 305.27265			43387.38302		68.58800		324.00000 
 43692.65567		 638.94831			43053.70736		215.98000		875.00000 
 43692.65567		 305.27265			43387.38302		68.58800		324.00000 
 43692.65567		 638.94831			43053.70736		215.98000		875.00000 
 43692.65567		 305.27265			43387.38302		68.58800		324.00000 
 43692.65567		 638.94831			43053.70736		215.98000		875.00000 
 43692.65567		 305.27265			43387.38302		68.58800		324.00000 
 43692.65567		 638.94831			43053.70736		216.14600		875.00000 
 43692.65567		 305.27265			43387.38302		68.58800		324.00000 
 43692.65567		 638.94831			43053.70736		216.14600		875.00000 
 43692.65567		 305.27265			43387.38302		68.58800		324.00000 
 43692.65567		 638.94831			43053.70736		216.14600		875.00000 
 43692.65567		 305.27265			43387.38302		68.58800		324.00000 
 43692.65567		 638.94831			43053.70736		216.14600		875.00000 
 43692.65567		 305.27265			43387.38302		68.58800		324.00000 
 43692.65567		 638.94831			43053.70736		216.14600		875.00000 
 43692.65567		 305.27265			43387.38302		68.58800		324.00000 
 43692.65567		 638.94831			43053.70736		216.14600		875.00000 
 43692.65567		 305.27265			43387.38302		68.58800		324.00000 
 43692.65567		 638.94831			43053.70736		216.14600		875.00000 
 43692.65567		 305.27265			43387.38302		68.58800		324.00000 
 43692.65567		 638.94831			43053.70736		216.14600		875.00000 
 43692.65567		 305.27265			43387.38302		68.58800		324.00000 
 43692.65567		 638.94831			43053.70736		216.14600		875.00000 
 43692.65567		 305.27265			43387.38302		68.58800		324.00000 
 43692.65567		 638.94831			43053.70736		216.14600		875.00000 
 43692.65567		 305.27265			43387.38302		68.58800		324.00000 
 43692.65567		 638.94831			43053.70736		216.14600		875.00000 
 43692.65567		 305.27265			43387.38302		68.58800		324.00000 
 43692.65567		 638.94831			43053.70736		216.14600		875.00000 
 43692.65567		 305.27265			43387.38302		68.58800		324.00000 
 43692.65567		 638.94831			43053.70736		216.14600		875.00000 
 43692.65567		 305.27265			43387.38302		68.58800		324.00000 
 43692.65567		 638.94831			43053.70736		216.14600		875.00000 
 43692.65567		 305.27265			43387.38302		68.58800		324.00000 
 43692.65567		 638.94831			43053.70736		216.14600		875.00000 
 43692.65567		 305.27265			43387.38302		68.58800		324.00000 
 43692.65567		 638.94831			43053.70736		216.14600		875.00000 
 43692.65567		 305.27265			43387.38302		68.58800		324.00000 
 43692.65567		 638.94831			43053.70736		216.14600		875.00000 
 43692.65567		 305.27265			43387.38302		68.58800		324.00000 
 43692.65567		 638.94831			43053.70736		216.14600		875.00000 
 43692.65567		 305.27265			43387.38302		68.58800		324.00000 
 43692.65567		 638.94831			43053.70736		216.14600		875.00000 
 43692.65567		 305.27265			43387.38302		68.58800		324.00000 
 43692.65567		 638.94831			43053.70736		216.14600		875.00000 
 43692.65567		 305.27265			43387.38302		68.58800		324.00000 
 43692.65567		 638.94831			43053.70736		216.14600		875.00000 
 43692.65567		 305.27265			43387.38302		68.58800		324.00000 
 43692.65567		 638.94831			43053.70736		216.14600		875.00000 
 43692.65567		 305.27265			43387.38302		68.58800		324.00000 
 43692.65567		 638.94831			43053.70736		216.14600		875.00000 
 43692.65567		 305.27265			43387.38302		68.58800		324.00000 
 43692.65567		 638.94831			43053.70736		216.14600		875.00000 
 43692.65567		 305.27265			43387.38302		68.58800		324.00000 
 43692.65567		 638.94831			43053.70736		216.14600		875.00000 
 43692.65567		 305.27265			43387.38302		68.58800		324.00000 
 43692.65567		 638.94831			43053.70736		216.14600		875.00000 
 43692.65567		 305.27265			43387.38302		68.58800		324.00000 
 43692.65567		 638.94831			43053.70736		216.14600		875.00000 
 43692.65567		 305.27265			43387.38302		68.58800		324.00000 
 43692.65567		 638.94831			43053.70736		216.14600		875.00000 
 43692.65567		 305.27265			43387.38302		68.58800		324.00000 
 43692.65567		 638.94831			43053.70736		216.14600		875.00000 
 43692.65567		 305.27265			43387.38302		68.58800		324.00000 
 43692.65567		 638.94831			43053.70736		216.14600		875.00000 
 43692.65567		 305.27265			43387.38302		68.58800		324.00000 
 43692.65567		 638.94831			43053.70736		216.14600		875.00000 
 43692.65567		 305.27265			43387.38302		68.58800		324.00000 
 43692.65567		 638.94831			43053.70736		216.14600		875.00000 
 43692.65567		 305.27265			43387.38302		68.58800		324.00000 
 43692.65567		 605.05565			43087.60002		216.14600		875.00000 
 43692.65567		 305.27265			43387.38302		68.58800		324.00000 
 43692.65567		 571.16299			43121.49269		216.14600		875.00000 
 43692.65567		 305.27265			43387.38302		68.58800		324.00000 
 43692.65567		 537.27032			43155.38535		216.14600		875.00000 
 43692.65567		 305.27265			43387.38302		68.58800		324.00000 
 43692.65567		 537.27032			43155.38535		216.14600		875.00000 
 43692.65567		 305.27265			43387.38302		68.58800		324.00000 
 43692.65567		 537.27032			43155.38535		216.14600		875.00000 
 43692.65567		 305.27265			43387.38302		68.58800		324.00000 
 43692.65567		 537.27032			43155.38535		216.14600		875.00000 
 43692.65567		 305.27265			43387.38302		68.58800		324.00000 
 43692.65567		 537.27032			43155.38535		216.14600		875.00000 
 43692.65567		 305.27265			43387.38302		68.58800		324.00000 
 43692.65567		 537.27032			43155.38535		216.14600		875.00000 
 43692.65567		 305.27265			43387.38302		68.58800		324.00000 
 43692.65567		 537.27032			43155.38535		216.14600		875.00000 
 43692.65567		 305.27265			43387.38302		68.58800		324.00000 
 43692.65567		 537.27032			43155.38535		216.14600		875.00000 
 43692.65567		 305.27265			43387.38302		68.58800		324.00000 
 43692.65567		 537.27032			43155.38535		216.14600		875.00000 
 43692.65567		 305.27265			43387.38302		68.58800		324.00000 
 43692.65567		 537.27032			43155.38535		216.14600		875.00000 
 43692.65567		 305.27265			43387.38302		68.58800		324.00000 
 43692.65567		 537.27032			43155.38535		216.14600		875.00000 
 43692.65567		 305.27265			43387.38302		68.58800		324.00000 
 43692.65567		 537.27032			43155.38535		216.14600		875.00000 
 43692.65567		 305.27265			43387.38302		68.58800		324.00000 
 43692.65567		 537.27032			43155.38535		216.14600		875.00000 
 43692.65567		 305.27265			43387.38302		68.58800		324.00000 
 43692.65567		 537.27032			43155.38535		216.14600		875.00000 
 43692.65567		 305.27265			43387.38302		68.58800		324.00000 
 43692.65567		 537.27032			43155.38535		216.14600		875.00000 
 43692.65567		 305.27265			43387.38302		68.58800		324.00000 
 43692.65567		 537.27032			43155.38535		216.14600		875.00000 
 43692.65567		 305.27265			43387.38302		68.58800		324.00000 
 43692.65567		 537.27032			43155.38535		216.14600		875.00000 
 43692.65567		 305.27265			43387.38302		68.58800		324.00000 
 43692.65567		 537.27032			43155.38535		216.14600		875.00000 
 43692.65567		 305.27265			43387.38302		68.58800		324.00000 
 43692.65567		 537.27032			43155.38535		216.14600		875.00000 
 43692.65567		 305.27265			43387.38302		68.58800		324.00000 
 43692.65567		 529.63254			43163.02313		216.14600		875.00000 
 43692.65567		 305.27265			43387.38302		68.58800		324.00000 
 43692.65567		 525.81365			43166.84203		184.60200		875.00000 
 43692.65567		 297.63487			43395.02080		68.58800		324.00000 
 43692.65567		 261.35540			43431.30027		184.60200		875.00000 
 43692.65567		 261.35540			43431.30027		68.58800		324.00000 
