Memory Total (MiB) 	 Memory Used (MiB) 	    Memory Free (MiB) 	 Power Drawed (W) 	 Clocks (Mhz) 	 
 43692.65567		 261.35540			43431.30027		190.01000		875.00000 
 43692.65567		 261.35540			43431.30027		65.72800		324.00000 
 43692.65567		 261.35540			43431.30027		190.01000		875.00000 
 43692.65567		 261.35540			43431.30027		65.72800		324.00000 
 43692.65567		 261.35540			43431.30027		190.01000		875.00000 
 43692.65567		 261.35540			43431.30027		65.72800		324.00000 
 43692.65567		 261.35540			43431.30027		190.01000		875.00000 
 43692.65567		 261.35540			43431.30027		65.72800		324.00000 
 43692.65567		 261.35540			43431.30027		190.01000		875.00000 
 43692.65567		 261.35540			43431.30027		65.72800		324.00000 
 43692.65567		 261.35540			43431.30027		190.01000		875.00000 
 43692.65567		 261.35540			43431.30027		65.72800		324.00000 
 43692.65567		 261.35540			43431.30027		190.01000		875.00000 
 43692.65567		 261.35540			43431.30027		65.72800		324.00000 
 43692.65567		 261.35540			43431.30027		190.01000		875.00000 
 43692.65567		 261.35540			43431.30027		65.72800		324.00000 
 43692.65567		 261.35540			43431.30027		190.01000		875.00000 
 43692.65567		 261.35540			43431.30027		65.72800		324.00000 
 43692.65567		 261.35540			43431.30027		190.01000		875.00000 
 43692.65567		 261.35540			43431.30027		65.72800		324.00000 
 43692.65567		 261.35540			43431.30027		190.01000		875.00000 
 43692.65567		 261.35540			43431.30027		65.72800		324.00000 
 43692.65567		 261.35540			43431.30027		190.01000		875.00000 
 43692.65567		 261.35540			43431.30027		65.72800		324.00000 
 43692.65567		 261.35540			43431.30027		190.01000		875.00000 
 43692.65567		 261.35540			43431.30027		65.72800		324.00000 
 43692.65567		 261.35540			43431.30027		190.01000		875.00000 
 43692.65567		 261.35540			43431.30027		65.72800		324.00000 
 43692.65567		 261.35540			43431.30027		190.01000		875.00000 
 43692.65567		 261.35540			43431.30027		65.72800		324.00000 
 43692.65567		 261.35540			43431.30027		190.01000		875.00000 
 43692.65567		 261.35540			43431.30027		65.72800		324.00000 
 43692.65567		 261.35540			43431.30027		190.01000		875.00000 
 43692.65567		 261.35540			43431.30027		65.72800		324.00000 
 43692.65567		 261.35540			43431.30027		190.01000		875.00000 
 43692.65567		 261.35540			43431.30027		65.72800		324.00000 
 43692.65567		 261.35540			43431.30027		190.01000		875.00000 
 43692.65567		 261.35540			43431.30027		65.72800		324.00000 
 43692.65567		 265.17429			43427.48138		190.01000		875.00000 
 43692.65567		 261.35540			43431.30027		65.72800		324.00000 
 43692.65567		 272.81207			43419.84360		190.01000		875.00000 
 43692.65567		 261.35540			43431.30027		65.72800		324.00000 
 43692.65567		 272.81207			43419.84360		190.01000		875.00000 
 43692.65567		 261.35540			43431.30027		65.72800		324.00000 
 43692.65567		 272.81207			43419.84360		190.01000		875.00000 
 43692.65567		 265.17429			43427.48138		65.72800		324.00000 
 43692.65567		 272.81207			43419.84360		154.08800		875.00000 
 43692.65567		 265.17429			43427.48138		65.72800		324.00000 
 43692.65567		 272.81207			43419.84360		154.08800		875.00000 
 43692.65567		 265.17429			43427.48138		65.72800		324.00000 
 43692.65567		 272.81207			43419.84360		154.08800		875.00000 
 43692.65567		 272.81207			43419.84360		65.72800		324.00000 
 43692.65567		 272.81207			43419.84360		154.08800		875.00000 
 43692.65567		 272.81207			43419.84360		65.72800		324.00000 
 43692.65567		 272.81207			43419.84360		154.08800		875.00000 
 43692.65567		 272.81207			43419.84360		65.72800		324.00000 
 43692.65567		 305.27265			43387.38302		154.08800		875.00000 
 43692.65567		 305.27265			43387.38302		65.72800		324.00000 
 43692.65567		 305.27265			43387.38302		154.08800		875.00000 
 43692.65567		 305.27265			43387.38302		65.72800		324.00000 
 43692.65567		 305.27265			43387.38302		154.08800		875.00000 
 43692.65567		 305.27265			43387.38302		65.72800		324.00000 
 43692.65567		 305.27265			43387.38302		154.08800		875.00000 
 43692.65567		 305.27265			43387.38302		65.72800		324.00000 
 43692.65567		 305.27265			43387.38302		154.08800		875.00000 
 43692.65567		 305.27265			43387.38302		65.72800		324.00000 
 43692.65567		 309.09154			43383.56413		154.08800		875.00000 
 43692.65567		 305.27265			43387.38302		65.72800		324.00000 
 43692.65567		 310.52363			43382.13204		154.08800		875.00000 
 43692.65567		 305.27265			43387.38302		65.72800		324.00000 
 43692.65567		 311.00099			43381.65468		154.08800		875.00000 
 43692.65567		 305.27265			43387.38302		65.72800		324.00000 
 43692.65567		 311.00099			43381.65468		154.08800		875.00000 
 43692.65567		 305.27265			43387.38302		65.72800		324.00000 
 43692.65567		 311.00099			43381.65468		154.08800		875.00000 
 43692.65567		 305.27265			43387.38302		65.72800		324.00000 
 43692.65567		 311.00099			43381.65468		154.08800		875.00000 
 43692.65567		 305.27265			43387.38302		65.72800		324.00000 
 43692.65567		 311.00099			43381.65468		154.08800		875.00000 
 43692.65567		 305.27265			43387.38302		65.72800		324.00000 
 43692.65567		 311.00099			43381.65468		154.08800		875.00000 
 43692.65567		 305.27265			43387.38302		65.72800		324.00000 
 43692.65567		 311.00099			43381.65468		154.08800		875.00000 
 43692.65567		 305.27265			43387.38302		65.72800		324.00000 
 43692.65567		 311.00099			43381.65468		154.08800		875.00000 
 43692.65567		 305.27265			43387.38302		65.72800		324.00000 
 43692.65567		 311.00099			43381.65468		154.08800		875.00000 
 43692.65567		 305.27265			43387.38302		65.72800		324.00000 
 43692.65567		 311.00099			43381.65468		154.08800		875.00000 
 43692.65567		 305.27265			43387.38302		65.72800		324.00000 
 43692.65567		 311.00099			43381.65468		154.08800		875.00000 
 43692.65567		 305.27265			43387.38302		65.72800		324.00000 
 43692.65567		 311.00099			43381.65468		154.08800		875.00000 
 43692.65567		 305.27265			43387.38302		65.72800		324.00000 
 43692.65567		 311.00099			43381.65468		154.08800		875.00000 
 43692.65567		 305.27265			43387.38302		65.72800		324.00000 
 43692.65567		 311.00099			43381.65468		154.08800		875.00000 
 43692.65567		 305.27265			43387.38302		65.72800		324.00000 
 43692.65567		 311.00099			43381.65468		154.08800		875.00000 
 43692.65567		 305.27265			43387.38302		65.72800		324.00000 
 43692.65567		 311.00099			43381.65468		154.08800		875.00000 
 43692.65567		 305.27265			43387.38302		65.72800		324.00000 
 43692.65567		 311.00099			43381.65468		154.08800		875.00000 
 43692.65567		 305.27265			43387.38302		65.72800		324.00000 
 43692.65567		 311.00099			43381.65468		154.08800		875.00000 
 43692.65567		 305.27265			43387.38302		65.72800		324.00000 
 43692.65567		 311.00099			43381.65468		154.08800		875.00000 
 43692.65567		 305.27265			43387.38302		65.72800		324.00000 
 43692.65567		 311.00099			43381.65468		139.24800		875.00000 
 43692.65567		 305.27265			43387.38302		65.72800		324.00000 
 43692.65567		 311.00099			43381.65468		139.24800		875.00000 
 43692.65567		 305.27265			43387.38302		65.72800		324.00000 
 43692.65567		 311.00099			43381.65468		139.24800		875.00000 
 43692.65567		 305.27265			43387.38302		65.72800		324.00000 
 43692.65567		 311.00099			43381.65468		139.24800		875.00000 
 43692.65567		 305.27265			43387.38302		65.72800		324.00000 
 43692.65567		 311.00099			43381.65468		139.24800		875.00000 
 43692.65567		 305.27265			43387.38302		65.72800		324.00000 
 43692.65567		 311.00099			43381.65468		139.24800		875.00000 
 43692.65567		 305.27265			43387.38302		65.72800		324.00000 
 43692.65567		 311.00099			43381.65468		139.24800		875.00000 
 43692.65567		 305.27265			43387.38302		65.72800		324.00000 
 43692.65567		 311.00099			43381.65468		139.24800		875.00000 
 43692.65567		 305.27265			43387.38302		65.72800		324.00000 
 43692.65567		 311.00099			43381.65468		139.24800		875.00000 
 43692.65567		 305.27265			43387.38302		65.72800		324.00000 
 43692.65567		 311.00099			43381.65468		139.24800		875.00000 
 43692.65567		 305.27265			43387.38302		65.72800		324.00000 
 43692.65567		 311.00099			43381.65468		139.24800		875.00000 
 43692.65567		 305.27265			43387.38302		65.72800		324.00000 
 43692.65567		 311.00099			43381.65468		139.24800		875.00000 
 43692.65567		 305.27265			43387.38302		65.72800		324.00000 
 43692.65567		 311.00099			43381.65468		139.24800		875.00000 
 43692.65567		 305.27265			43387.38302		65.72800		324.00000 
 43692.65567		 311.00099			43381.65468		139.24800		875.00000 
 43692.65567		 305.27265			43387.38302		65.72800		324.00000 
 43692.65567		 311.00099			43381.65468		139.24800		875.00000 
 43692.65567		 305.27265			43387.38302		65.72800		324.00000 
 43692.65567		 311.00099			43381.65468		139.24800		875.00000 
 43692.65567		 305.27265			43387.38302		65.72800		324.00000 
 43692.65567		 311.00099			43381.65468		139.24800		875.00000 
 43692.65567		 305.27265			43387.38302		65.72800		324.00000 
 43692.65567		 311.00099			43381.65468		139.24800		875.00000 
 43692.65567		 305.27265			43387.38302		65.72800		324.00000 
 43692.65567		 311.00099			43381.65468		139.24800		875.00000 
 43692.65567		 305.27265			43387.38302		65.72800		324.00000 
 43692.65567		 311.00099			43381.65468		139.24800		875.00000 
 43692.65567		 305.27265			43387.38302		65.72800		324.00000 
 43692.65567		 311.00099			43381.65468		139.24800		875.00000 
 43692.65567		 305.27265			43387.38302		65.72800		324.00000 
 43692.65567		 311.00099			43381.65468		139.24800		875.00000 
 43692.65567		 305.27265			43387.38302		65.72800		324.00000 
 43692.65567		 311.00099			43381.65468		139.24800		875.00000 
 43692.65567		 305.27265			43387.38302		65.72800		324.00000 
 43692.65567		 311.00099			43381.65468		139.24800		875.00000 
 43692.65567		 305.27265			43387.38302		65.72800		324.00000 
 43692.65567		 311.00099			43381.65468		139.24800		875.00000 
 43692.65567		 305.27265			43387.38302		65.72800		324.00000 
 43692.65567		 311.00099			43381.65468		139.24800		875.00000 
 43692.65567		 305.27265			43387.38302		65.72800		324.00000 
 43692.65567		 311.00099			43381.65468		139.24800		875.00000 
 43692.65567		 305.27265			43387.38302		65.72800		324.00000 
 43692.65567		 311.00099			43381.65468		139.24800		875.00000 
 43692.65567		 305.27265			43387.38302		65.72800		324.00000 
 43692.65567		 311.00099			43381.65468		139.24800		875.00000 
 43692.65567		 305.27265			43387.38302		65.72800		324.00000 
 43692.65567		 311.00099			43381.65468		139.24800		875.00000 
 43692.65567		 305.27265			43387.38302		65.72800		324.00000 
 43692.65567		 311.00099			43381.65468		139.24800		875.00000 
 43692.65567		 305.27265			43387.38302		65.72800		324.00000 
 43692.65567		 311.00099			43381.65468		134.44800		875.00000 
 43692.65567		 305.27265			43387.38302		65.72800		324.00000 
 43692.65567		 314.81988			43377.83579		134.44800		875.00000 
 43692.65567		 305.27265			43387.38302		65.72800		324.00000 
 43692.65567		 314.81988			43377.83579		134.44800		875.00000 
 43692.65567		 305.27265			43387.38302		65.72800		324.00000 
 43692.65567		 314.81988			43377.83579		134.44800		875.00000 
 43692.65567		 305.27265			43387.38302		65.72800		324.00000 
 43692.65567		 318.63877			43374.01690		134.44800		875.00000 
 43692.65567		 305.27265			43387.38302		65.72800		324.00000 
 43692.65567		 322.45767			43370.19801		134.44800		875.00000 
 43692.65567		 305.27265			43387.38302		65.72800		324.00000 
 43692.65567		 326.27656			43366.37912		134.44800		875.00000 
 43692.65567		 305.27265			43387.38302		65.72800		324.00000 
 43692.65567		 326.27656			43366.37912		134.44800		875.00000 
 43692.65567		 305.27265			43387.38302		65.72800		324.00000 
 43692.65567		 326.27656			43366.37912		134.44800		875.00000 
 43692.65567		 305.27265			43387.38302		65.72800		324.00000 
 43692.65567		 537.27032			43155.38535		134.44800		875.00000 
 43692.65567		 305.27265			43387.38302		65.72800		324.00000 
 43692.65567		 565.43465			43127.22102		134.44800		875.00000 
 43692.65567		 305.27265			43387.38302		65.72800		324.00000 
 43692.65567		 621.76330			43070.89237		134.44800		875.00000 
 43692.65567		 305.27265			43387.38302		65.72800		324.00000 
 43692.65567		 621.76330			43070.89237		134.44800		875.00000 
 43692.65567		 305.27265			43387.38302		65.72800		324.00000 
 43692.65567		 621.76330			43070.89237		134.44800		875.00000 
 43692.65567		 305.27265			43387.38302		65.72800		324.00000 
 43692.65567		 621.76330			43070.89237		134.44800		875.00000 
 43692.65567		 305.27265			43387.38302		65.72800		324.00000 
 43692.65567		 621.76330			43070.89237		134.44800		875.00000 
 43692.65567		 305.27265			43387.38302		65.72800		324.00000 
 43692.65567		 621.76330			43070.89237		134.44800		875.00000 
 43692.65567		 305.27265			43387.38302		65.72800		324.00000 
 43692.65567		 621.76330			43070.89237		134.44800		875.00000 
 43692.65567		 305.27265			43387.38302		65.72800		324.00000 
 43692.65567		 621.76330			43070.89237		134.44800		875.00000 
 43692.65567		 305.27265			43387.38302		65.72800		324.00000 
 43692.65567		 621.76330			43070.89237		134.44800		875.00000 
 43692.65567		 305.27265			43387.38302		65.72800		324.00000 
 43692.65567		 621.76330			43070.89237		134.44800		875.00000 
 43692.65567		 305.27265			43387.38302		65.72800		324.00000 
 43692.65567		 621.76330			43070.89237		134.44800		875.00000 
 43692.65567		 305.27265			43387.38302		65.72800		324.00000 
 43692.65567		 621.76330			43070.89237		134.44800		875.00000 
 43692.65567		 305.27265			43387.38302		65.72800		324.00000 
 43692.65567		 621.76330			43070.89237		134.44800		875.00000 
 43692.65567		 305.27265			43387.38302		65.72800		324.00000 
 43692.65567		 621.76330			43070.89237		134.44800		875.00000 
 43692.65567		 305.27265			43387.38302		65.72800		324.00000 
 43692.65567		 621.76330			43070.89237		134.44800		875.00000 
 43692.65567		 305.27265			43387.38302		65.72800		324.00000 
 43692.65567		 621.76330			43070.89237		134.44800		875.00000 
 43692.65567		 305.27265			43387.38302		65.72800		324.00000 
 43692.65567		 621.76330			43070.89237		134.44800		875.00000 
 43692.65567		 305.27265			43387.38302		65.72800		324.00000 
 43692.65567		 621.76330			43070.89237		134.44800		875.00000 
 43692.65567		 305.27265			43387.38302		65.72800		324.00000 
 43692.65567		 621.76330			43070.89237		134.44800		875.00000 
 43692.65567		 305.27265			43387.38302		65.72800		324.00000 
 43692.65567		 621.76330			43070.89237		134.44800		875.00000 
 43692.65567		 305.27265			43387.38302		65.72800		324.00000 
 43692.65567		 621.76330			43070.89237		134.44800		875.00000 
 43692.65567		 305.27265			43387.38302		65.72800		324.00000 
 43692.65567		 621.76330			43070.89237		134.44800		875.00000 
 43692.65567		 305.27265			43387.38302		65.72800		324.00000 
 43692.65567		 621.76330			43070.89237		134.44800		875.00000 
 43692.65567		 305.27265			43387.38302		65.72800		324.00000 
 43692.65567		 621.76330			43070.89237		134.44800		875.00000 
 43692.65567		 305.27265			43387.38302		65.72800		324.00000 
 43692.65567		 621.76330			43070.89237		134.44800		875.00000 
 43692.65567		 305.27265			43387.38302		65.72800		324.00000 
 43692.65567		 621.76330			43070.89237		134.44800		875.00000 
 43692.65567		 305.27265			43387.38302		65.72800		324.00000 
 43692.65567		 621.76330			43070.89237		134.44800		875.00000 
 43692.65567		 305.27265			43387.38302		65.72800		324.00000 
 43692.65567		 621.76330			43070.89237		134.44800		875.00000 
 43692.65567		 305.27265			43387.38302		65.72800		324.00000 
 43692.65567		 621.76330			43070.89237		134.44800		875.00000 
 43692.65567		 305.27265			43387.38302		65.72800		324.00000 
 43692.65567		 621.76330			43070.89237		134.44800		875.00000 
 43692.65567		 305.27265			43387.38302		65.72800		324.00000 
 43692.65567		 621.76330			43070.89237		134.44800		875.00000 
 43692.65567		 305.27265			43387.38302		65.72800		324.00000 
 43692.65567		 621.76330			43070.89237		134.44800		875.00000 
 43692.65567		 305.27265			43387.38302		65.72800		324.00000 
 43692.65567		 621.76330			43070.89237		134.44800		875.00000 
 43692.65567		 305.27265			43387.38302		65.72800		324.00000 
 43692.65567		 621.76330			43070.89237		134.44800		875.00000 
 43692.65567		 305.27265			43387.38302		65.72800		324.00000 
 43692.65567		 621.76330			43070.89237		134.44800		875.00000 
 43692.65567		 305.27265			43387.38302		65.72800		324.00000 
 43692.65567		 621.76330			43070.89237		134.44800		875.00000 
 43692.65567		 305.27265			43387.38302		65.72800		324.00000 
 43692.65567		 621.76330			43070.89237		134.44800		875.00000 
 43692.65567		 305.27265			43387.38302		65.72800		324.00000 
 43692.65567		 621.76330			43070.89237		134.44800		875.00000 
 43692.65567		 305.27265			43387.38302		65.72800		324.00000 
 43692.65567		 621.76330			43070.89237		134.44800		875.00000 
 43692.65567		 305.27265			43387.38302		65.72800		324.00000 
 43692.65567		 621.76330			43070.89237		134.44800		875.00000 
 43692.65567		 305.27265			43387.38302		65.72800		324.00000 
 43692.65567		 621.76330			43070.89237		134.44800		875.00000 
 43692.65567		 305.27265			43387.38302		65.72800		324.00000 
 43692.65567		 621.76330			43070.89237		134.44800		875.00000 
 43692.65567		 305.27265			43387.38302		65.72800		324.00000 
 43692.65567		 621.76330			43070.89237		134.44800		875.00000 
 43692.65567		 305.27265			43387.38302		65.72800		324.00000 
 43692.65567		 621.76330			43070.89237		134.44800		875.00000 
 43692.65567		 305.27265			43387.38302		65.72800		324.00000 
 43692.65567		 621.76330			43070.89237		134.44800		875.00000 
 43692.65567		 305.27265			43387.38302		65.72800		324.00000 
 43692.65567		 621.76330			43070.89237		134.44800		875.00000 
 43692.65567		 305.27265			43387.38302		65.72800		324.00000 
 43692.65567		 621.76330			43070.89237		134.44800		875.00000 
 43692.65567		 305.27265			43387.38302		65.72800		324.00000 
 43692.65567		 621.76330			43070.89237		134.44800		875.00000 
 43692.65567		 305.27265			43387.38302		65.72800		324.00000 
 43692.65567		 621.76330			43070.89237		175.99000		875.00000 
 43692.65567		 305.27265			43387.38302		65.72800		324.00000 
 43692.65567		 621.76330			43070.89237		175.99000		875.00000 
 43692.65567		 305.27265			43387.38302		65.72800		324.00000 
 43692.65567		 621.76330			43070.89237		175.99000		875.00000 
 43692.65567		 305.27265			43387.38302		65.72800		324.00000 
 43692.65567		 621.76330			43070.89237		175.99000		875.00000 
 43692.65567		 305.27265			43387.38302		65.72800		324.00000 
 43692.65567		 621.76330			43070.89237		175.99000		875.00000 
 43692.65567		 305.27265			43387.38302		65.72800		324.00000 
 43692.65567		 621.76330			43070.89237		175.99000		875.00000 
 43692.65567		 305.27265			43387.38302		65.72800		324.00000 
 43692.65567		 621.76330			43070.89237		175.99000		875.00000 
 43692.65567		 305.27265			43387.38302		65.72800		324.00000 
 43692.65567		 621.76330			43070.89237		175.99000		875.00000 
 43692.65567		 305.27265			43387.38302		65.72800		324.00000 
 43692.65567		 621.76330			43070.89237		175.99000		875.00000 
 43692.65567		 305.27265			43387.38302		65.72800		324.00000 
 43692.65567		 621.76330			43070.89237		175.99000		875.00000 
 43692.65567		 305.27265			43387.38302		65.72800		324.00000 
 43692.65567		 621.76330			43070.89237		175.99000		875.00000 
 43692.65567		 305.27265			43387.38302		65.72800		324.00000 
 43692.65567		 621.76330			43070.89237		175.99000		875.00000 
 43692.65567		 305.27265			43387.38302		65.72800		324.00000 
 43692.65567		 621.76330			43070.89237		175.99000		875.00000 
 43692.65567		 305.27265			43387.38302		65.72800		324.00000 
 43692.65567		 621.76330			43070.89237		175.99000		875.00000 
 43692.65567		 305.27265			43387.38302		65.72800		324.00000 
 43692.65567		 621.76330			43070.89237		175.99000		875.00000 
 43692.65567		 305.27265			43387.38302		65.72800		324.00000 
 43692.65567		 621.76330			43070.89237		175.99000		875.00000 
 43692.65567		 305.27265			43387.38302		65.72800		324.00000 
 43692.65567		 621.76330			43070.89237		175.99000		875.00000 
 43692.65567		 305.27265			43387.38302		65.72800		324.00000 
 43692.65567		 621.76330			43070.89237		175.99000		875.00000 
 43692.65567		 305.27265			43387.38302		65.72800		324.00000 
 43692.65567		 621.76330			43070.89237		175.99000		875.00000 
 43692.65567		 305.27265			43387.38302		65.72800		324.00000 
 43692.65567		 621.76330			43070.89237		175.99000		875.00000 
 43692.65567		 305.27265			43387.38302		65.72800		324.00000 
 43692.65567		 621.76330			43070.89237		175.99000		875.00000 
 43692.65567		 305.27265			43387.38302		65.72800		324.00000 
 43692.65567		 621.76330			43070.89237		175.99000		875.00000 
 43692.65567		 305.27265			43387.38302		65.72800		324.00000 
 43692.65567		 621.76330			43070.89237		175.99000		875.00000 
 43692.65567		 305.27265			43387.38302		65.72800		324.00000 
 43692.65567		 621.76330			43070.89237		175.99000		875.00000 
 43692.65567		 305.27265			43387.38302		65.72800		324.00000 
 43692.65567		 621.76330			43070.89237		175.99000		875.00000 
 43692.65567		 305.27265			43387.38302		65.72800		324.00000 
 43692.65567		 621.76330			43070.89237		175.99000		875.00000 
 43692.65567		 305.27265			43387.38302		65.72800		324.00000 
 43692.65567		 621.76330			43070.89237		175.99000		875.00000 
 43692.65567		 305.27265			43387.38302		65.72800		324.00000 
 43692.65567		 621.76330			43070.89237		175.99000		875.00000 
 43692.65567		 305.27265			43387.38302		65.72800		324.00000 
 43692.65567		 621.76330			43070.89237		175.99000		875.00000 
 43692.65567		 305.27265			43387.38302		65.72800		324.00000 
 43692.65567		 621.76330			43070.89237		175.99000		875.00000 
 43692.65567		 305.27265			43387.38302		65.72800		324.00000 
 43692.65567		 621.76330			43070.89237		175.99000		875.00000 
 43692.65567		 305.27265			43387.38302		65.72800		324.00000 
 43692.65567		 621.76330			43070.89237		175.99000		875.00000 
 43692.65567		 305.27265			43387.38302		65.72800		324.00000 
 43692.65567		 621.76330			43070.89237		175.99000		875.00000 
 43692.65567		 305.27265			43387.38302		65.72800		324.00000 
 43692.65567		 621.76330			43070.89237		175.99000		875.00000 
 43692.65567		 305.27265			43387.38302		65.72800		324.00000 
 43692.65567		 621.76330			43070.89237		175.99000		875.00000 
 43692.65567		 305.27265			43387.38302		65.72800		324.00000 
 43692.65567		 621.76330			43070.89237		175.99000		875.00000 
 43692.65567		 305.27265			43387.38302		65.72800		324.00000 
 43692.65567		 621.76330			43070.89237		175.99000		875.00000 
 43692.65567		 305.27265			43387.38302		65.72800		324.00000 
 43692.65567		 621.76330			43070.89237		175.99000		875.00000 
 43692.65567		 305.27265			43387.38302		65.72800		324.00000 
 43692.65567		 621.76330			43070.89237		175.99000		875.00000 
 43692.65567		 305.27265			43387.38302		65.72800		324.00000 
 43692.65567		 621.76330			43070.89237		175.99000		875.00000 
 43692.65567		 305.27265			43387.38302		65.72800		324.00000 
 43692.65567		 621.76330			43070.89237		175.99000		875.00000 
 43692.65567		 305.27265			43387.38302		65.72800		324.00000 
 43692.65567		 621.76330			43070.89237		175.99000		875.00000 
 43692.65567		 305.27265			43387.38302		65.72800		324.00000 
 43692.65567		 621.76330			43070.89237		175.99000		875.00000 
 43692.65567		 305.27265			43387.38302		65.72800		324.00000 
 43692.65567		 621.76330			43070.89237		175.99000		875.00000 
 43692.65567		 305.27265			43387.38302		65.72800		324.00000 
 43692.65567		 621.76330			43070.89237		175.99000		875.00000 
 43692.65567		 305.27265			43387.38302		65.72800		324.00000 
 43692.65567		 621.76330			43070.89237		175.99000		875.00000 
 43692.65567		 305.27265			43387.38302		65.72800		324.00000 
 43692.65567		 621.76330			43070.89237		175.99000		875.00000 
 43692.65567		 305.27265			43387.38302		65.72800		324.00000 
 43692.65567		 621.76330			43070.89237		175.99000		875.00000 
 43692.65567		 305.27265			43387.38302		65.72800		324.00000 
 43692.65567		 621.76330			43070.89237		175.99000		875.00000 
 43692.65567		 305.27265			43387.38302		65.72800		324.00000 
 43692.65567		 621.76330			43070.89237		175.99000		875.00000 
 43692.65567		 305.27265			43387.38302		65.72800		324.00000 
 43692.65567		 621.76330			43070.89237		175.99000		875.00000 
 43692.65567		 305.27265			43387.38302		65.72800		324.00000 
 43692.65567		 621.76330			43070.89237		175.99000		875.00000 
 43692.65567		 305.27265			43387.38302		65.72800		324.00000 
 43692.65567		 621.76330			43070.89237		175.99000		875.00000 
 43692.65567		 305.27265			43387.38302		65.72800		324.00000 
 43692.65567		 621.76330			43070.89237		175.99000		875.00000 
 43692.65567		 305.27265			43387.38302		65.72800		324.00000 
 43692.65567		 621.76330			43070.89237		175.99000		875.00000 
 43692.65567		 305.27265			43387.38302		65.72800		324.00000 
 43692.65567		 621.76330			43070.89237		175.99000		875.00000 
 43692.65567		 305.27265			43387.38302		65.72800		324.00000 
 43692.65567		 621.76330			43070.89237		175.99000		875.00000 
 43692.65567		 305.27265			43387.38302		65.72800		324.00000 
 43692.65567		 621.76330			43070.89237		175.99000		875.00000 
 43692.65567		 305.27265			43387.38302		65.72800		324.00000 
 43692.65567		 621.76330			43070.89237		175.99000		875.00000 
 43692.65567		 305.27265			43387.38302		65.72800		324.00000 
 43692.65567		 621.76330			43070.89237		175.99000		875.00000 
 43692.65567		 305.27265			43387.38302		65.72800		324.00000 
 43692.65567		 621.76330			43070.89237		175.99000		875.00000 
 43692.65567		 305.27265			43387.38302		65.72800		324.00000 
 43692.65567		 621.76330			43070.89237		175.99000		875.00000 
 43692.65567		 305.27265			43387.38302		69.17800		324.00000 
 43692.65567		 621.76330			43070.89237		202.78800		875.00000 
 43692.65567		 305.27265			43387.38302		69.17800		324.00000 
 43692.65567		 621.76330			43070.89237		202.78800		875.00000 
 43692.65567		 305.27265			43387.38302		69.17800		324.00000 
 43692.65567		 621.76330			43070.89237		202.78800		875.00000 
 43692.65567		 305.27265			43387.38302		69.17800		324.00000 
 43692.65567		 621.76330			43070.89237		202.78800		875.00000 
 43692.65567		 305.27265			43387.38302		69.17800		324.00000 
 43692.65567		 621.76330			43070.89237		202.78800		875.00000 
 43692.65567		 305.27265			43387.38302		69.17800		324.00000 
 43692.65567		 621.76330			43070.89237		202.78800		875.00000 
 43692.65567		 305.27265			43387.38302		69.17800		324.00000 
 43692.65567		 621.76330			43070.89237		202.78800		875.00000 
 43692.65567		 305.27265			43387.38302		69.17800		324.00000 
 43692.65567		 621.76330			43070.89237		202.78800		875.00000 
 43692.65567		 305.27265			43387.38302		69.17800		324.00000 
 43692.65567		 621.76330			43070.89237		202.78800		875.00000 
 43692.65567		 305.27265			43387.38302		69.17800		324.00000 
 43692.65567		 621.76330			43070.89237		202.78800		875.00000 
 43692.65567		 305.27265			43387.38302		69.17800		324.00000 
 43692.65567		 621.76330			43070.89237		202.78800		875.00000 
 43692.65567		 305.27265			43387.38302		69.17800		324.00000 
 43692.65567		 621.76330			43070.89237		202.78800		875.00000 
 43692.65567		 305.27265			43387.38302		69.17800		324.00000 
 43692.65567		 621.76330			43070.89237		202.78800		875.00000 
 43692.65567		 305.27265			43387.38302		69.17800		324.00000 
 43692.65567		 621.76330			43070.89237		202.78800		875.00000 
 43692.65567		 305.27265			43387.38302		69.17800		324.00000 
 43692.65567		 621.76330			43070.89237		202.78800		875.00000 
 43692.65567		 305.27265			43387.38302		69.17800		324.00000 
 43692.65567		 621.76330			43070.89237		202.78800		875.00000 
 43692.65567		 305.27265			43387.38302		69.17800		324.00000 
 43692.65567		 621.76330			43070.89237		202.78800		875.00000 
 43692.65567		 305.27265			43387.38302		69.17800		324.00000 
 43692.65567		 621.76330			43070.89237		202.78800		875.00000 
 43692.65567		 305.27265			43387.38302		69.17800		324.00000 
 43692.65567		 621.76330			43070.89237		202.78800		875.00000 
 43692.65567		 305.27265			43387.38302		69.17800		324.00000 
 43692.65567		 621.76330			43070.89237		202.78800		875.00000 
 43692.65567		 305.27265			43387.38302		69.17800		324.00000 
 43692.65567		 621.76330			43070.89237		202.78800		875.00000 
 43692.65567		 305.27265			43387.38302		69.17800		324.00000 
 43692.65567		 621.76330			43070.89237		202.78800		875.00000 
 43692.65567		 305.27265			43387.38302		69.17800		324.00000 
 43692.65567		 621.76330			43070.89237		202.78800		875.00000 
 43692.65567		 305.27265			43387.38302		69.17800		324.00000 
 43692.65567		 621.76330			43070.89237		202.78800		875.00000 
 43692.65567		 305.27265			43387.38302		69.17800		324.00000 
 43692.65567		 621.76330			43070.89237		202.78800		875.00000 
 43692.65567		 305.27265			43387.38302		69.17800		324.00000 
 43692.65567		 621.76330			43070.89237		202.78800		875.00000 
 43692.65567		 305.27265			43387.38302		69.17800		324.00000 
 43692.65567		 621.76330			43070.89237		202.78800		875.00000 
 43692.65567		 305.27265			43387.38302		69.17800		324.00000 
 43692.65567		 621.76330			43070.89237		202.78800		875.00000 
 43692.65567		 305.27265			43387.38302		69.17800		324.00000 
 43692.65567		 621.76330			43070.89237		202.78800		875.00000 
 43692.65567		 305.27265			43387.38302		69.17800		324.00000 
 43692.65567		 621.76330			43070.89237		202.78800		875.00000 
 43692.65567		 305.27265			43387.38302		69.17800		324.00000 
 43692.65567		 621.76330			43070.89237		202.78800		875.00000 
 43692.65567		 305.27265			43387.38302		69.17800		324.00000 
 43692.65567		 621.76330			43070.89237		202.78800		875.00000 
 43692.65567		 305.27265			43387.38302		69.17800		324.00000 
 43692.65567		 621.76330			43070.89237		202.78800		875.00000 
 43692.65567		 305.27265			43387.38302		69.17800		324.00000 
 43692.65567		 621.76330			43070.89237		202.78800		875.00000 
 43692.65567		 305.27265			43387.38302		69.17800		324.00000 
 43692.65567		 621.76330			43070.89237		202.78800		875.00000 
 43692.65567		 305.27265			43387.38302		69.17800		324.00000 
 43692.65567		 621.76330			43070.89237		202.78800		875.00000 
 43692.65567		 305.27265			43387.38302		69.17800		324.00000 
 43692.65567		 621.76330			43070.89237		202.78800		875.00000 
 43692.65567		 305.27265			43387.38302		69.17800		324.00000 
 43692.65567		 621.76330			43070.89237		202.78800		875.00000 
 43692.65567		 305.27265			43387.38302		69.17800		324.00000 
 43692.65567		 621.76330			43070.89237		202.78800		875.00000 
 43692.65567		 305.27265			43387.38302		69.17800		324.00000 
 43692.65567		 621.76330			43070.89237		202.78800		875.00000 
 43692.65567		 305.27265			43387.38302		69.17800		324.00000 
 43692.65567		 621.76330			43070.89237		202.78800		875.00000 
 43692.65567		 305.27265			43387.38302		69.17800		324.00000 
 43692.65567		 621.76330			43070.89237		202.78800		875.00000 
 43692.65567		 305.27265			43387.38302		69.17800		324.00000 
 43692.65567		 621.76330			43070.89237		202.78800		875.00000 
 43692.65567		 305.27265			43387.38302		69.17800		324.00000 
 43692.65567		 621.76330			43070.89237		202.78800		875.00000 
 43692.65567		 305.27265			43387.38302		69.17800		324.00000 
 43692.65567		 621.76330			43070.89237		202.78800		875.00000 
 43692.65567		 305.27265			43387.38302		69.17800		324.00000 
 43692.65567		 621.76330			43070.89237		202.78800		875.00000 
 43692.65567		 305.27265			43387.38302		69.17800		324.00000 
 43692.65567		 621.76330			43070.89237		202.78800		875.00000 
 43692.65567		 305.27265			43387.38302		69.17800		324.00000 
 43692.65567		 621.76330			43070.89237		202.78800		875.00000 
 43692.65567		 305.27265			43387.38302		69.17800		324.00000 
 43692.65567		 621.76330			43070.89237		202.78800		875.00000 
 43692.65567		 305.27265			43387.38302		69.17800		324.00000 
 43692.65567		 621.76330			43070.89237		202.78800		875.00000 
 43692.65567		 305.27265			43387.38302		69.17800		324.00000 
 43692.65567		 621.76330			43070.89237		202.78800		875.00000 
 43692.65567		 305.27265			43387.38302		69.17800		324.00000 
 43692.65567		 621.76330			43070.89237		202.78800		875.00000 
 43692.65567		 305.27265			43387.38302		69.17800		324.00000 
 43692.65567		 621.76330			43070.89237		202.78800		875.00000 
 43692.65567		 305.27265			43387.38302		69.17800		324.00000 
 43692.65567		 621.76330			43070.89237		202.78800		875.00000 
 43692.65567		 305.27265			43387.38302		69.17800		324.00000 
 43692.65567		 621.76330			43070.89237		202.78800		875.00000 
 43692.65567		 305.27265			43387.38302		69.17800		324.00000 
 43692.65567		 621.76330			43070.89237		202.78800		875.00000 
 43692.65567		 305.27265			43387.38302		69.17800		324.00000 
 43692.65567		 621.76330			43070.89237		202.78800		875.00000 
 43692.65567		 305.27265			43387.38302		69.17800		324.00000 
 43692.65567		 621.76330			43070.89237		202.78800		875.00000 
 43692.65567		 305.27265			43387.38302		69.17800		324.00000 
 43692.65567		 621.76330			43070.89237		202.78800		875.00000 
 43692.65567		 305.27265			43387.38302		69.17800		324.00000 
 43692.65567		 621.76330			43070.89237		202.78800		875.00000 
 43692.65567		 305.27265			43387.38302		69.17800		324.00000 
 43692.65567		 621.76330			43070.89237		202.78800		875.00000 
 43692.65567		 305.27265			43387.38302		69.17800		324.00000 
 43692.65567		 621.76330			43070.89237		202.78800		875.00000 
 43692.65567		 305.27265			43387.38302		69.17800		324.00000 
 43692.65567		 621.76330			43070.89237		202.78800		875.00000 
 43692.65567		 305.27265			43387.38302		69.17800		324.00000 
 43692.65567		 621.76330			43070.89237		202.78800		875.00000 
 43692.65567		 305.27265			43387.38302		69.17800		324.00000 
 43692.65567		 621.76330			43070.89237		213.17200		875.00000 
 43692.65567		 305.27265			43387.38302		69.17800		324.00000 
 43692.65567		 621.76330			43070.89237		213.17200		875.00000 
 43692.65567		 305.27265			43387.38302		69.17800		324.00000 
 43692.65567		 621.76330			43070.89237		213.17200		875.00000 
 43692.65567		 305.27265			43387.38302		69.17800		324.00000 
 43692.65567		 621.76330			43070.89237		213.17200		875.00000 
 43692.65567		 305.27265			43387.38302		69.17800		324.00000 
 43692.65567		 621.76330			43070.89237		213.17200		875.00000 
 43692.65567		 305.27265			43387.38302		69.17800		324.00000 
 43692.65567		 621.76330			43070.89237		213.17200		875.00000 
 43692.65567		 305.27265			43387.38302		69.17800		324.00000 
 43692.65567		 621.76330			43070.89237		213.17200		875.00000 
 43692.65567		 305.27265			43387.38302		69.17800		324.00000 
 43692.65567		 621.76330			43070.89237		213.17200		875.00000 
 43692.65567		 305.27265			43387.38302		69.17800		324.00000 
 43692.65567		 621.76330			43070.89237		213.17200		875.00000 
 43692.65567		 305.27265			43387.38302		69.17800		324.00000 
 43692.65567		 621.76330			43070.89237		213.17200		875.00000 
 43692.65567		 305.27265			43387.38302		69.17800		324.00000 
 43692.65567		 621.76330			43070.89237		213.17200		875.00000 
 43692.65567		 305.27265			43387.38302		69.17800		324.00000 
 43692.65567		 621.76330			43070.89237		213.17200		875.00000 
 43692.65567		 305.27265			43387.38302		69.17800		324.00000 
 43692.65567		 621.76330			43070.89237		213.17200		875.00000 
 43692.65567		 305.27265			43387.38302		69.17800		324.00000 
 43692.65567		 621.76330			43070.89237		213.17200		875.00000 
 43692.65567		 305.27265			43387.38302		69.17800		324.00000 
 43692.65567		 621.76330			43070.89237		213.17200		875.00000 
 43692.65567		 305.27265			43387.38302		69.17800		324.00000 
 43692.65567		 621.76330			43070.89237		213.17200		875.00000 
 43692.65567		 305.27265			43387.38302		69.17800		324.00000 
 43692.65567		 621.76330			43070.89237		213.17200		875.00000 
 43692.65567		 305.27265			43387.38302		69.17800		324.00000 
 43692.65567		 621.76330			43070.89237		213.17200		875.00000 
 43692.65567		 305.27265			43387.38302		69.17800		324.00000 
 43692.65567		 621.76330			43070.89237		213.17200		875.00000 
 43692.65567		 305.27265			43387.38302		69.17800		324.00000 
 43692.65567		 621.76330			43070.89237		213.17200		875.00000 
 43692.65567		 305.27265			43387.38302		69.17800		324.00000 
 43692.65567		 621.76330			43070.89237		213.17200		875.00000 
 43692.65567		 305.27265			43387.38302		69.17800		324.00000 
 43692.65567		 621.76330			43070.89237		213.17200		875.00000 
 43692.65567		 305.27265			43387.38302		69.17800		324.00000 
 43692.65567		 621.76330			43070.89237		213.17200		875.00000 
 43692.65567		 305.27265			43387.38302		69.17800		324.00000 
 43692.65567		 621.76330			43070.89237		213.17200		875.00000 
 43692.65567		 305.27265			43387.38302		69.17800		324.00000 
 43692.65567		 621.76330			43070.89237		213.17200		875.00000 
 43692.65567		 305.27265			43387.38302		69.17800		324.00000 
 43692.65567		 621.76330			43070.89237		213.17200		875.00000 
 43692.65567		 305.27265			43387.38302		69.17800		324.00000 
 43692.65567		 621.76330			43070.89237		213.17200		875.00000 
 43692.65567		 305.27265			43387.38302		69.17800		324.00000 
 43692.65567		 621.76330			43070.89237		213.17200		875.00000 
 43692.65567		 305.27265			43387.38302		69.17800		324.00000 
 43692.65567		 621.76330			43070.89237		213.17200		875.00000 
 43692.65567		 305.27265			43387.38302		69.17800		324.00000 
 43692.65567		 621.76330			43070.89237		213.17200		875.00000 
 43692.65567		 305.27265			43387.38302		69.17800		324.00000 
 43692.65567		 621.76330			43070.89237		213.17200		875.00000 
 43692.65567		 305.27265			43387.38302		69.17800		324.00000 
 43692.65567		 621.76330			43070.89237		213.17200		875.00000 
 43692.65567		 305.27265			43387.38302		69.17800		324.00000 
 43692.65567		 621.76330			43070.89237		213.17200		875.00000 
 43692.65567		 305.27265			43387.38302		69.17800		324.00000 
 43692.65567		 621.76330			43070.89237		213.17200		875.00000 
 43692.65567		 305.27265			43387.38302		69.17800		324.00000 
 43692.65567		 621.76330			43070.89237		213.17200		875.00000 
 43692.65567		 305.27265			43387.38302		69.17800		324.00000 
 43692.65567		 621.76330			43070.89237		213.17200		875.00000 
 43692.65567		 305.27265			43387.38302		69.17800		324.00000 
 43692.65567		 621.76330			43070.89237		213.17200		875.00000 
 43692.65567		 305.27265			43387.38302		69.17800		324.00000 
 43692.65567		 621.76330			43070.89237		213.17200		875.00000 
 43692.65567		 305.27265			43387.38302		69.17800		324.00000 
 43692.65567		 621.76330			43070.89237		213.17200		875.00000 
 43692.65567		 305.27265			43387.38302		69.17800		324.00000 
 43692.65567		 621.76330			43070.89237		213.17200		875.00000 
 43692.65567		 305.27265			43387.38302		69.17800		324.00000 
 43692.65567		 621.76330			43070.89237		213.17200		875.00000 
 43692.65567		 305.27265			43387.38302		69.17800		324.00000 
 43692.65567		 621.76330			43070.89237		213.17200		875.00000 
 43692.65567		 305.27265			43387.38302		69.17800		324.00000 
 43692.65567		 621.76330			43070.89237		213.17200		875.00000 
 43692.65567		 305.27265			43387.38302		69.17800		324.00000 
 43692.65567		 621.76330			43070.89237		213.17200		875.00000 
 43692.65567		 305.27265			43387.38302		69.17800		324.00000 
 43692.65567		 621.76330			43070.89237		213.17200		875.00000 
 43692.65567		 305.27265			43387.38302		69.17800		324.00000 
 43692.65567		 621.76330			43070.89237		213.17200		875.00000 
 43692.65567		 305.27265			43387.38302		69.17800		324.00000 
 43692.65567		 621.76330			43070.89237		213.17200		875.00000 
 43692.65567		 305.27265			43387.38302		69.17800		324.00000 
 43692.65567		 621.76330			43070.89237		213.17200		875.00000 
 43692.65567		 305.27265			43387.38302		69.17800		324.00000 
 43692.65567		 621.76330			43070.89237		213.17200		875.00000 
 43692.65567		 305.27265			43387.38302		69.17800		324.00000 
 43692.65567		 621.76330			43070.89237		213.17200		875.00000 
 43692.65567		 305.27265			43387.38302		69.17800		324.00000 
 43692.65567		 621.76330			43070.89237		213.17200		875.00000 
 43692.65567		 305.27265			43387.38302		69.17800		324.00000 
 43692.65567		 621.76330			43070.89237		213.17200		875.00000 
 43692.65567		 305.27265			43387.38302		69.17800		324.00000 
 43692.65567		 621.76330			43070.89237		213.17200		875.00000 
 43692.65567		 305.27265			43387.38302		69.17800		324.00000 
 43692.65567		 621.76330			43070.89237		213.17200		875.00000 
 43692.65567		 305.27265			43387.38302		69.17800		324.00000 
 43692.65567		 621.76330			43070.89237		213.17200		875.00000 
 43692.65567		 305.27265			43387.38302		69.17800		324.00000 
 43692.65567		 621.76330			43070.89237		213.17200		875.00000 
 43692.65567		 305.27265			43387.38302		69.17800		324.00000 
 43692.65567		 621.76330			43070.89237		213.17200		875.00000 
 43692.65567		 305.27265			43387.38302		69.17800		324.00000 
 43692.65567		 621.76330			43070.89237		213.17200		875.00000 
 43692.65567		 305.27265			43387.38302		69.17800		324.00000 
 43692.65567		 621.76330			43070.89237		213.17200		875.00000 
 43692.65567		 305.27265			43387.38302		69.17800		324.00000 
 43692.65567		 621.76330			43070.89237		213.17200		875.00000 
 43692.65567		 305.27265			43387.38302		69.17800		324.00000 
 43692.65567		 621.76330			43070.89237		213.17200		875.00000 
 43692.65567		 305.27265			43387.38302		69.17800		324.00000 
 43692.65567		 621.76330			43070.89237		213.17200		875.00000 
 43692.65567		 305.27265			43387.38302		69.17800		324.00000 
 43692.65567		 621.76330			43070.89237		213.17200		875.00000 
 43692.65567		 305.27265			43387.38302		69.17800		324.00000 
 43692.65567		 621.76330			43070.89237		213.17200		875.00000 
 43692.65567		 305.27265			43387.38302		69.17800		324.00000 
 43692.65567		 621.76330			43070.89237		213.17200		875.00000 
 43692.65567		 305.27265			43387.38302		69.17800		324.00000 
 43692.65567		 621.76330			43070.89237		217.79400		875.00000 
 43692.65567		 305.27265			43387.38302		69.17800		324.00000 
 43692.65567		 621.76330			43070.89237		217.79400		875.00000 
 43692.65567		 305.27265			43387.38302		69.17800		324.00000 
 43692.65567		 621.76330			43070.89237		217.79400		875.00000 
 43692.65567		 305.27265			43387.38302		69.17800		324.00000 
 43692.65567		 621.76330			43070.89237		217.79400		875.00000 
 43692.65567		 305.27265			43387.38302		69.17800		324.00000 
 43692.65567		 621.76330			43070.89237		217.79400		875.00000 
 43692.65567		 305.27265			43387.38302		69.17800		324.00000 
 43692.65567		 621.76330			43070.89237		217.79400		875.00000 
 43692.65567		 305.27265			43387.38302		69.17800		324.00000 
 43692.65567		 621.76330			43070.89237		217.79400		875.00000 
 43692.65567		 305.27265			43387.38302		69.17800		324.00000 
 43692.65567		 621.76330			43070.89237		217.79400		875.00000 
 43692.65567		 305.27265			43387.38302		69.17800		324.00000 
 43692.65567		 621.76330			43070.89237		217.79400		875.00000 
 43692.65567		 305.27265			43387.38302		69.17800		324.00000 
 43692.65567		 621.76330			43070.89237		217.79400		875.00000 
 43692.65567		 305.27265			43387.38302		69.17800		324.00000 
 43692.65567		 621.76330			43070.89237		217.79400		875.00000 
 43692.65567		 305.27265			43387.38302		69.17800		324.00000 
 43692.65567		 621.76330			43070.89237		217.79400		875.00000 
 43692.65567		 305.27265			43387.38302		69.17800		324.00000 
 43692.65567		 621.76330			43070.89237		217.79400		875.00000 
 43692.65567		 305.27265			43387.38302		69.17800		324.00000 
 43692.65567		 621.76330			43070.89237		217.79400		875.00000 
 43692.65567		 305.27265			43387.38302		69.17800		324.00000 
 43692.65567		 621.76330			43070.89237		217.79400		875.00000 
 43692.65567		 305.27265			43387.38302		69.17800		324.00000 
 43692.65567		 621.76330			43070.89237		217.79400		875.00000 
 43692.65567		 305.27265			43387.38302		69.17800		324.00000 
 43692.65567		 621.76330			43070.89237		217.79400		875.00000 
 43692.65567		 305.27265			43387.38302		69.17800		324.00000 
 43692.65567		 621.76330			43070.89237		217.79400		875.00000 
 43692.65567		 305.27265			43387.38302		69.17800		324.00000 
 43692.65567		 621.76330			43070.89237		217.79400		875.00000 
 43692.65567		 305.27265			43387.38302		69.17800		324.00000 
 43692.65567		 621.76330			43070.89237		217.79400		875.00000 
 43692.65567		 305.27265			43387.38302		69.17800		324.00000 
 43692.65567		 621.76330			43070.89237		217.79400		875.00000 
 43692.65567		 305.27265			43387.38302		69.17800		324.00000 
 43692.65567		 621.76330			43070.89237		217.79400		875.00000 
 43692.65567		 305.27265			43387.38302		69.17800		324.00000 
 43692.65567		 621.76330			43070.89237		217.79400		875.00000 
 43692.65567		 305.27265			43387.38302		69.17800		324.00000 
 43692.65567		 621.76330			43070.89237		217.79400		875.00000 
 43692.65567		 305.27265			43387.38302		69.17800		324.00000 
 43692.65567		 621.76330			43070.89237		217.79400		875.00000 
 43692.65567		 305.27265			43387.38302		69.17800		324.00000 
 43692.65567		 621.76330			43070.89237		217.79400		875.00000 
 43692.65567		 305.27265			43387.38302		69.17800		324.00000 
 43692.65567		 621.76330			43070.89237		217.79400		875.00000 
 43692.65567		 305.27265			43387.38302		69.17800		324.00000 
 43692.65567		 621.76330			43070.89237		217.79400		875.00000 
 43692.65567		 305.27265			43387.38302		69.17800		324.00000 
 43692.65567		 621.76330			43070.89237		217.79400		875.00000 
 43692.65567		 305.27265			43387.38302		69.17800		324.00000 
 43692.65567		 621.76330			43070.89237		217.79400		875.00000 
 43692.65567		 305.27265			43387.38302		69.17800		324.00000 
 43692.65567		 621.76330			43070.89237		217.79400		875.00000 
 43692.65567		 305.27265			43387.38302		69.17800		324.00000 
 43692.65567		 621.76330			43070.89237		217.79400		875.00000 
 43692.65567		 305.27265			43387.38302		69.17800		324.00000 
 43692.65567		 621.76330			43070.89237		217.79400		875.00000 
 43692.65567		 305.27265			43387.38302		69.17800		324.00000 
 43692.65567		 621.76330			43070.89237		217.79400		875.00000 
 43692.65567		 305.27265			43387.38302		69.17800		324.00000 
 43692.65567		 621.76330			43070.89237		217.79400		875.00000 
 43692.65567		 305.27265			43387.38302		69.17800		324.00000 
 43692.65567		 621.76330			43070.89237		217.79400		875.00000 
 43692.65567		 305.27265			43387.38302		69.17800		324.00000 
 43692.65567		 621.76330			43070.89237		217.79400		875.00000 
 43692.65567		 305.27265			43387.38302		69.17800		324.00000 
 43692.65567		 621.76330			43070.89237		217.79400		875.00000 
 43692.65567		 305.27265			43387.38302		69.17800		324.00000 
 43692.65567		 621.76330			43070.89237		217.79400		875.00000 
 43692.65567		 305.27265			43387.38302		69.17800		324.00000 
 43692.65567		 621.76330			43070.89237		217.79400		875.00000 
 43692.65567		 305.27265			43387.38302		69.17800		324.00000 
 43692.65567		 621.76330			43070.89237		217.79400		875.00000 
 43692.65567		 305.27265			43387.38302		69.17800		324.00000 
 43692.65567		 621.76330			43070.89237		217.79400		875.00000 
 43692.65567		 305.27265			43387.38302		69.17800		324.00000 
 43692.65567		 621.76330			43070.89237		217.79400		875.00000 
 43692.65567		 305.27265			43387.38302		69.17800		324.00000 
 43692.65567		 621.76330			43070.89237		217.79400		875.00000 
 43692.65567		 305.27265			43387.38302		69.17800		324.00000 
 43692.65567		 621.76330			43070.89237		217.79400		875.00000 
 43692.65567		 305.27265			43387.38302		69.17800		324.00000 
 43692.65567		 621.76330			43070.89237		217.79400		875.00000 
 43692.65567		 305.27265			43387.38302		69.17800		324.00000 
 43692.65567		 621.76330			43070.89237		217.79400		875.00000 
 43692.65567		 305.27265			43387.38302		69.17800		324.00000 
 43692.65567		 621.76330			43070.89237		217.79400		875.00000 
 43692.65567		 305.27265			43387.38302		69.17800		324.00000 
 43692.65567		 621.76330			43070.89237		217.79400		875.00000 
 43692.65567		 305.27265			43387.38302		69.17800		324.00000 
 43692.65567		 621.76330			43070.89237		217.79400		875.00000 
 43692.65567		 305.27265			43387.38302		69.17800		324.00000 
 43692.65567		 621.76330			43070.89237		217.79400		875.00000 
 43692.65567		 305.27265			43387.38302		69.17800		324.00000 
 43692.65567		 621.76330			43070.89237		217.79400		875.00000 
 43692.65567		 305.27265			43387.38302		69.17800		324.00000 
 43692.65567		 621.76330			43070.89237		217.79400		875.00000 
 43692.65567		 305.27265			43387.38302		69.17800		324.00000 
 43692.65567		 621.76330			43070.89237		217.79400		875.00000 
 43692.65567		 305.27265			43387.38302		69.17800		324.00000 
 43692.65567		 621.76330			43070.89237		217.79400		875.00000 
 43692.65567		 305.27265			43387.38302		69.17800		324.00000 
 43692.65567		 621.76330			43070.89237		217.79400		875.00000 
 43692.65567		 305.27265			43387.38302		69.17800		324.00000 
 43692.65567		 621.76330			43070.89237		217.79400		875.00000 
 43692.65567		 305.27265			43387.38302		69.17800		324.00000 
 43692.65567		 621.76330			43070.89237		217.79400		875.00000 
 43692.65567		 305.27265			43387.38302		69.17800		324.00000 
 43692.65567		 621.76330			43070.89237		217.79400		875.00000 
 43692.65567		 305.27265			43387.38302		69.17800		324.00000 
 43692.65567		 621.76330			43070.89237		217.79400		875.00000 
 43692.65567		 305.27265			43387.38302		69.17800		324.00000 
 43692.65567		 621.76330			43070.89237		217.79400		875.00000 
 43692.65567		 305.27265			43387.38302		69.17800		324.00000 
 43692.65567		 621.76330			43070.89237		217.79400		875.00000 
 43692.65567		 305.27265			43387.38302		69.17800		324.00000 
 43692.65567		 621.76330			43070.89237		217.79400		875.00000 
 43692.65567		 305.27265			43387.38302		69.17800		324.00000 
 43692.65567		 621.76330			43070.89237		217.79400		875.00000 
 43692.65567		 305.27265			43387.38302		69.17800		324.00000 
 43692.65567		 621.76330			43070.89237		218.56000		875.00000 
 43692.65567		 305.27265			43387.38302		69.17800		324.00000 
 43692.65567		 621.76330			43070.89237		218.56000		875.00000 
 43692.65567		 305.27265			43387.38302		69.17800		324.00000 
 43692.65567		 621.76330			43070.89237		218.56000		875.00000 
 43692.65567		 305.27265			43387.38302		69.17800		324.00000 
 43692.65567		 621.76330			43070.89237		218.56000		875.00000 
 43692.65567		 305.27265			43387.38302		69.17800		324.00000 
 43692.65567		 621.76330			43070.89237		218.56000		875.00000 
 43692.65567		 305.27265			43387.38302		69.17800		324.00000 
 43692.65567		 621.76330			43070.89237		218.56000		875.00000 
 43692.65567		 305.27265			43387.38302		69.17800		324.00000 
 43692.65567		 621.76330			43070.89237		218.56000		875.00000 
 43692.65567		 305.27265			43387.38302		69.17800		324.00000 
 43692.65567		 621.76330			43070.89237		218.56000		875.00000 
 43692.65567		 305.27265			43387.38302		69.17800		324.00000 
 43692.65567		 621.76330			43070.89237		218.56000		875.00000 
 43692.65567		 305.27265			43387.38302		69.17800		324.00000 
 43692.65567		 621.76330			43070.89237		218.56000		875.00000 
 43692.65567		 305.27265			43387.38302		69.17800		324.00000 
 43692.65567		 621.76330			43070.89237		218.56000		875.00000 
 43692.65567		 305.27265			43387.38302		69.17800		324.00000 
 43692.65567		 621.76330			43070.89237		218.56000		875.00000 
 43692.65567		 305.27265			43387.38302		69.17800		324.00000 
 43692.65567		 621.76330			43070.89237		218.56000		875.00000 
 43692.65567		 305.27265			43387.38302		69.17800		324.00000 
 43692.65567		 621.76330			43070.89237		218.56000		875.00000 
 43692.65567		 305.27265			43387.38302		69.17800		324.00000 
 43692.65567		 621.76330			43070.89237		218.56000		875.00000 
 43692.65567		 305.27265			43387.38302		69.17800		324.00000 
 43692.65567		 621.76330			43070.89237		218.56000		875.00000 
 43692.65567		 305.27265			43387.38302		69.17800		324.00000 
 43692.65567		 621.76330			43070.89237		218.56000		875.00000 
 43692.65567		 305.27265			43387.38302		69.17800		324.00000 
 43692.65567		 621.76330			43070.89237		218.56000		875.00000 
 43692.65567		 305.27265			43387.38302		69.17800		324.00000 
 43692.65567		 593.59897			43099.05670		218.56000		875.00000 
 43692.65567		 305.27265			43387.38302		69.17800		324.00000 
 43692.65567		 537.27032			43155.38535		218.56000		875.00000 
 43692.65567		 305.27265			43387.38302		69.17800		324.00000 
 43692.65567		 537.27032			43155.38535		218.56000		875.00000 
 43692.65567		 305.27265			43387.38302		69.17800		324.00000 
 43692.65567		 537.27032			43155.38535		218.56000		875.00000 
 43692.65567		 305.27265			43387.38302		69.17800		324.00000 
 43692.65567		 537.27032			43155.38535		218.56000		875.00000 
 43692.65567		 305.27265			43387.38302		69.17800		324.00000 
 43692.65567		 537.27032			43155.38535		218.56000		875.00000 
 43692.65567		 305.27265			43387.38302		69.17800		324.00000 
 43692.65567		 537.27032			43155.38535		218.56000		875.00000 
 43692.65567		 305.27265			43387.38302		69.17800		324.00000 
 43692.65567		 537.27032			43155.38535		218.56000		875.00000 
 43692.65567		 305.27265			43387.38302		69.17800		324.00000 
 43692.65567		 537.27032			43155.38535		218.56000		875.00000 
 43692.65567		 305.27265			43387.38302		69.17800		324.00000 
 43692.65567		 537.27032			43155.38535		218.56000		875.00000 
 43692.65567		 305.27265			43387.38302		69.17800		324.00000 
 43692.65567		 537.27032			43155.38535		218.56000		875.00000 
 43692.65567		 305.27265			43387.38302		69.17800		324.00000 
 43692.65567		 537.27032			43155.38535		218.56000		875.00000 
 43692.65567		 305.27265			43387.38302		69.17800		324.00000 
 43692.65567		 537.27032			43155.38535		218.56000		875.00000 
 43692.65567		 305.27265			43387.38302		69.17800		324.00000 
 43692.65567		 537.27032			43155.38535		218.56000		875.00000 
 43692.65567		 305.27265			43387.38302		69.17800		324.00000 
 43692.65567		 537.27032			43155.38535		218.56000		875.00000 
 43692.65567		 305.27265			43387.38302		69.17800		324.00000 
 43692.65567		 537.27032			43155.38535		218.56000		875.00000 
 43692.65567		 305.27265			43387.38302		69.17800		324.00000 
 43692.65567		 537.27032			43155.38535		218.56000		875.00000 
 43692.65567		 305.27265			43387.38302		69.17800		324.00000 
 43692.65567		 537.27032			43155.38535		218.56000		875.00000 
 43692.65567		 305.27265			43387.38302		69.17800		324.00000 
 43692.65567		 537.27032			43155.38535		218.56000		875.00000 
 43692.65567		 305.27265			43387.38302		69.17800		324.00000 
 43692.65567		 537.27032			43155.38535		218.56000		875.00000 
 43692.65567		 305.27265			43387.38302		69.17800		324.00000 
 43692.65567		 537.27032			43155.38535		218.56000		875.00000 
 43692.65567		 305.27265			43387.38302		69.17800		324.00000 
 43692.65567		 537.27032			43155.38535		218.56000		875.00000 
 43692.65567		 305.27265			43387.38302		69.17800		324.00000 
 43692.65567		 529.63254			43163.02313		218.56000		875.00000 
 43692.65567		 305.27265			43387.38302		69.17800		324.00000 
 43692.65567		 525.81365			43166.84203		218.56000		875.00000 
 43692.65567		 297.63487			43395.02080		69.17800		324.00000 
 43692.65567		 261.35540			43431.30027		176.41200		875.00000 
 43692.65567		 261.35540			43431.30027		69.17800		324.00000 
