Memory Total (MiB) 	 Memory Used (MiB) 	    Memory Free (MiB) 	 Power Drawed (W) 	 Clocks (Mhz) 	 
 43692.65567		 261.35540			43431.30027		187.33800		797.00000 
 43692.65567		 261.35540			43431.30027		68.60400		324.00000 
 43692.65567		 261.35540			43431.30027		187.33800		797.00000 
 43692.65567		 261.35540			43431.30027		68.60400		324.00000 
 43692.65567		 261.35540			43431.30027		187.33800		797.00000 
 43692.65567		 261.35540			43431.30027		68.60400		324.00000 
 43692.65567		 261.35540			43431.30027		187.33800		797.00000 
 43692.65567		 261.35540			43431.30027		68.60400		324.00000 
 43692.65567		 261.35540			43431.30027		187.33800		797.00000 
 43692.65567		 261.35540			43431.30027		68.60400		324.00000 
 43692.65567		 261.35540			43431.30027		187.33800		797.00000 
 43692.65567		 261.35540			43431.30027		68.60400		324.00000 
 43692.65567		 261.35540			43431.30027		187.33800		797.00000 
 43692.65567		 261.35540			43431.30027		68.60400		324.00000 
 43692.65567		 261.35540			43431.30027		187.33800		797.00000 
 43692.65567		 261.35540			43431.30027		68.60400		324.00000 
 43692.65567		 261.35540			43431.30027		187.33800		797.00000 
 43692.65567		 261.35540			43431.30027		68.60400		324.00000 
 43692.65567		 261.35540			43431.30027		187.33800		797.00000 
 43692.65567		 261.35540			43431.30027		68.60400		324.00000 
 43692.65567		 261.35540			43431.30027		149.74400		797.00000 
 43692.65567		 261.35540			43431.30027		66.57000		324.00000 
 43692.65567		 261.35540			43431.30027		149.74400		797.00000 
 43692.65567		 261.35540			43431.30027		66.57000		324.00000 
 43692.65567		 261.35540			43431.30027		149.74400		797.00000 
 43692.65567		 261.35540			43431.30027		66.57000		324.00000 
 43692.65567		 261.35540			43431.30027		149.74400		797.00000 
 43692.65567		 261.35540			43431.30027		66.57000		324.00000 
 43692.65567		 261.35540			43431.30027		149.74400		797.00000 
 43692.65567		 261.35540			43431.30027		66.57000		324.00000 
 43692.65567		 261.35540			43431.30027		149.74400		797.00000 
 43692.65567		 261.35540			43431.30027		66.57000		324.00000 
 43692.65567		 261.35540			43431.30027		149.74400		797.00000 
 43692.65567		 261.35540			43431.30027		66.57000		324.00000 
 43692.65567		 261.35540			43431.30027		149.74400		797.00000 
 43692.65567		 261.35540			43431.30027		66.57000		324.00000 
 43692.65567		 265.17429			43427.48138		149.74400		797.00000 
 43692.65567		 261.35540			43431.30027		66.57000		324.00000 
 43692.65567		 265.17429			43427.48138		149.74400		797.00000 
 43692.65567		 261.35540			43431.30027		66.57000		324.00000 
 43692.65567		 272.81207			43419.84360		149.74400		797.00000 
 43692.65567		 261.35540			43431.30027		66.57000		324.00000 
 43692.65567		 272.81207			43419.84360		149.74400		797.00000 
 43692.65567		 261.35540			43431.30027		66.57000		324.00000 
 43692.65567		 272.81207			43419.84360		149.74400		797.00000 
 43692.65567		 265.17429			43427.48138		66.57000		324.00000 
 43692.65567		 272.81207			43419.84360		149.74400		797.00000 
 43692.65567		 265.17429			43427.48138		66.57000		324.00000 
 43692.65567		 272.81207			43419.84360		149.74400		797.00000 
 43692.65567		 272.81207			43419.84360		66.57000		324.00000 
 43692.65567		 272.81207			43419.84360		149.74400		797.00000 
 43692.65567		 272.81207			43419.84360		66.57000		324.00000 
 43692.65567		 272.81207			43419.84360		149.74400		797.00000 
 43692.65567		 272.81207			43419.84360		66.57000		324.00000 
 43692.65567		 272.81207			43419.84360		149.74400		797.00000 
 43692.65567		 305.27265			43387.38302		66.57000		324.00000 
 43692.65567		 305.27265			43387.38302		149.74400		797.00000 
 43692.65567		 305.27265			43387.38302		66.57000		324.00000 
 43692.65567		 305.27265			43387.38302		149.74400		797.00000 
 43692.65567		 305.27265			43387.38302		66.57000		324.00000 
 43692.65567		 305.27265			43387.38302		149.74400		797.00000 
 43692.65567		 305.27265			43387.38302		66.57000		324.00000 
 43692.65567		 305.27265			43387.38302		149.74400		797.00000 
 43692.65567		 305.27265			43387.38302		66.57000		324.00000 
 43692.65567		 309.09154			43383.56413		149.74400		797.00000 
 43692.65567		 305.27265			43387.38302		66.57000		324.00000 
 43692.65567		 310.52363			43382.13204		149.74400		797.00000 
 43692.65567		 305.27265			43387.38302		66.57000		324.00000 
 43692.65567		 311.00099			43381.65468		149.74400		797.00000 
 43692.65567		 305.27265			43387.38302		66.57000		324.00000 
 43692.65567		 311.00099			43381.65468		149.74400		797.00000 
 43692.65567		 305.27265			43387.38302		66.57000		324.00000 
 43692.65567		 311.00099			43381.65468		149.74400		797.00000 
 43692.65567		 305.27265			43387.38302		66.57000		324.00000 
 43692.65567		 311.00099			43381.65468		149.74400		797.00000 
 43692.65567		 305.27265			43387.38302		66.57000		324.00000 
 43692.65567		 311.00099			43381.65468		149.74400		797.00000 
 43692.65567		 305.27265			43387.38302		66.57000		324.00000 
 43692.65567		 311.00099			43381.65468		149.74400		797.00000 
 43692.65567		 305.27265			43387.38302		66.57000		324.00000 
 43692.65567		 311.00099			43381.65468		149.74400		797.00000 
 43692.65567		 305.27265			43387.38302		66.57000		324.00000 
 43692.65567		 311.00099			43381.65468		134.91200		797.00000 
 43692.65567		 305.27265			43387.38302		66.57000		324.00000 
 43692.65567		 311.00099			43381.65468		134.91200		797.00000 
 43692.65567		 305.27265			43387.38302		66.57000		324.00000 
 43692.65567		 311.00099			43381.65468		134.91200		797.00000 
 43692.65567		 305.27265			43387.38302		66.57000		324.00000 
 43692.65567		 311.00099			43381.65468		134.91200		797.00000 
 43692.65567		 305.27265			43387.38302		66.57000		324.00000 
 43692.65567		 311.00099			43381.65468		134.91200		797.00000 
 43692.65567		 305.27265			43387.38302		66.57000		324.00000 
 43692.65567		 311.00099			43381.65468		134.91200		797.00000 
 43692.65567		 305.27265			43387.38302		66.57000		324.00000 
 43692.65567		 311.00099			43381.65468		134.91200		797.00000 
 43692.65567		 305.27265			43387.38302		66.57000		324.00000 
 43692.65567		 311.00099			43381.65468		134.91200		797.00000 
 43692.65567		 305.27265			43387.38302		66.57000		324.00000 
 43692.65567		 311.00099			43381.65468		134.91200		797.00000 
 43692.65567		 305.27265			43387.38302		66.57000		324.00000 
 43692.65567		 311.00099			43381.65468		134.91200		797.00000 
 43692.65567		 305.27265			43387.38302		66.57000		324.00000 
 43692.65567		 311.00099			43381.65468		134.91200		797.00000 
 43692.65567		 305.27265			43387.38302		66.57000		324.00000 
 43692.65567		 311.00099			43381.65468		134.91200		797.00000 
 43692.65567		 305.27265			43387.38302		66.57000		324.00000 
 43692.65567		 311.00099			43381.65468		134.91200		797.00000 
 43692.65567		 305.27265			43387.38302		66.57000		324.00000 
 43692.65567		 311.00099			43381.65468		134.91200		797.00000 
 43692.65567		 305.27265			43387.38302		66.57000		324.00000 
 43692.65567		 311.00099			43381.65468		134.91200		797.00000 
 43692.65567		 305.27265			43387.38302		66.57000		324.00000 
 43692.65567		 311.00099			43381.65468		134.91200		797.00000 
 43692.65567		 305.27265			43387.38302		66.57000		324.00000 
 43692.65567		 311.00099			43381.65468		134.91200		797.00000 
 43692.65567		 305.27265			43387.38302		66.57000		324.00000 
 43692.65567		 311.00099			43381.65468		134.91200		797.00000 
 43692.65567		 305.27265			43387.38302		66.57000		324.00000 
 43692.65567		 311.00099			43381.65468		134.91200		797.00000 
 43692.65567		 305.27265			43387.38302		66.57000		324.00000 
 43692.65567		 311.00099			43381.65468		134.91200		797.00000 
 43692.65567		 305.27265			43387.38302		66.57000		324.00000 
 43692.65567		 311.00099			43381.65468		134.91200		797.00000 
 43692.65567		 305.27265			43387.38302		66.57000		324.00000 
 43692.65567		 311.00099			43381.65468		134.91200		797.00000 
 43692.65567		 305.27265			43387.38302		66.57000		324.00000 
 43692.65567		 311.00099			43381.65468		134.91200		797.00000 
 43692.65567		 305.27265			43387.38302		66.57000		324.00000 
 43692.65567		 311.00099			43381.65468		134.91200		797.00000 
 43692.65567		 305.27265			43387.38302		66.57000		324.00000 
 43692.65567		 311.00099			43381.65468		134.91200		797.00000 
 43692.65567		 305.27265			43387.38302		66.57000		324.00000 
 43692.65567		 311.00099			43381.65468		134.91200		797.00000 
 43692.65567		 305.27265			43387.38302		66.57000		324.00000 
 43692.65567		 311.00099			43381.65468		134.91200		797.00000 
 43692.65567		 305.27265			43387.38302		66.57000		324.00000 
 43692.65567		 311.00099			43381.65468		134.91200		797.00000 
 43692.65567		 305.27265			43387.38302		66.57000		324.00000 
 43692.65567		 311.00099			43381.65468		134.91200		797.00000 
 43692.65567		 305.27265			43387.38302		66.57000		324.00000 
 43692.65567		 311.00099			43381.65468		134.91200		797.00000 
 43692.65567		 305.27265			43387.38302		66.57000		324.00000 
 43692.65567		 311.00099			43381.65468		134.91200		797.00000 
 43692.65567		 305.27265			43387.38302		66.57000		324.00000 
 43692.65567		 311.00099			43381.65468		134.91200		797.00000 
 43692.65567		 305.27265			43387.38302		66.57000		324.00000 
 43692.65567		 311.00099			43381.65468		128.54800		797.00000 
 43692.65567		 305.27265			43387.38302		66.57000		324.00000 
 43692.65567		 311.00099			43381.65468		128.54800		797.00000 
 43692.65567		 305.27265			43387.38302		66.57000		324.00000 
 43692.65567		 311.00099			43381.65468		128.54800		797.00000 
 43692.65567		 305.27265			43387.38302		66.57000		324.00000 
 43692.65567		 311.00099			43381.65468		128.54800		797.00000 
 43692.65567		 305.27265			43387.38302		66.57000		324.00000 
 43692.65567		 311.00099			43381.65468		128.54800		797.00000 
 43692.65567		 305.27265			43387.38302		66.57000		324.00000 
 43692.65567		 311.00099			43381.65468		128.54800		797.00000 
 43692.65567		 305.27265			43387.38302		66.57000		324.00000 
 43692.65567		 311.00099			43381.65468		128.54800		797.00000 
 43692.65567		 305.27265			43387.38302		66.57000		324.00000 
 43692.65567		 311.00099			43381.65468		128.54800		797.00000 
 43692.65567		 305.27265			43387.38302		66.57000		324.00000 
 43692.65567		 311.00099			43381.65468		128.54800		797.00000 
 43692.65567		 305.27265			43387.38302		66.57000		324.00000 
 43692.65567		 311.00099			43381.65468		128.54800		797.00000 
 43692.65567		 305.27265			43387.38302		66.57000		324.00000 
 43692.65567		 311.00099			43381.65468		128.54800		797.00000 
 43692.65567		 305.27265			43387.38302		66.57000		324.00000 
 43692.65567		 314.81988			43377.83579		128.54800		797.00000 
 43692.65567		 305.27265			43387.38302		66.57000		324.00000 
 43692.65567		 314.81988			43377.83579		128.54800		797.00000 
 43692.65567		 305.27265			43387.38302		66.57000		324.00000 
 43692.65567		 314.81988			43377.83579		128.54800		797.00000 
 43692.65567		 305.27265			43387.38302		66.57000		324.00000 
 43692.65567		 318.63877			43374.01690		128.54800		797.00000 
 43692.65567		 305.27265			43387.38302		66.57000		324.00000 
 43692.65567		 322.45767			43370.19801		128.54800		797.00000 
 43692.65567		 305.27265			43387.38302		66.57000		324.00000 
 43692.65567		 326.27656			43366.37912		128.54800		797.00000 
 43692.65567		 305.27265			43387.38302		66.57000		324.00000 
 43692.65567		 326.27656			43366.37912		128.54800		797.00000 
 43692.65567		 305.27265			43387.38302		66.57000		324.00000 
 43692.65567		 326.27656			43366.37912		128.54800		797.00000 
 43692.65567		 305.27265			43387.38302		66.57000		324.00000 
 43692.65567		 537.27032			43155.38535		128.54800		797.00000 
 43692.65567		 305.27265			43387.38302		66.57000		324.00000 
 43692.65567		 576.41396			43116.24171		128.54800		797.00000 
 43692.65567		 305.27265			43387.38302		66.57000		324.00000 
 43692.65567		 595.98578			43096.66989		128.54800		797.00000 
 43692.65567		 305.27265			43387.38302		66.57000		324.00000 
 43692.65567		 595.98578			43096.66989		128.54800		797.00000 
 43692.65567		 305.27265			43387.38302		66.57000		324.00000 
 43692.65567		 595.98578			43096.66989		128.54800		797.00000 
 43692.65567		 305.27265			43387.38302		66.57000		324.00000 
 43692.65567		 595.98578			43096.66989		128.54800		797.00000 
 43692.65567		 305.27265			43387.38302		66.57000		324.00000 
 43692.65567		 595.98578			43096.66989		128.54800		797.00000 
 43692.65567		 305.27265			43387.38302		66.57000		324.00000 
 43692.65567		 595.98578			43096.66989		128.54800		797.00000 
 43692.65567		 305.27265			43387.38302		66.57000		324.00000 
 43692.65567		 595.98578			43096.66989		128.54800		797.00000 
 43692.65567		 305.27265			43387.38302		66.57000		324.00000 
 43692.65567		 595.98578			43096.66989		128.54800		797.00000 
 43692.65567		 305.27265			43387.38302		66.57000		324.00000 
 43692.65567		 595.98578			43096.66989		128.54800		797.00000 
 43692.65567		 305.27265			43387.38302		66.57000		324.00000 
 43692.65567		 595.98578			43096.66989		128.54800		797.00000 
 43692.65567		 305.27265			43387.38302		66.57000		324.00000 
 43692.65567		 595.98578			43096.66989		128.54800		797.00000 
 43692.65567		 305.27265			43387.38302		66.57000		324.00000 
 43692.65567		 595.98578			43096.66989		128.54800		797.00000 
 43692.65567		 305.27265			43387.38302		66.57000		324.00000 
 43692.65567		 595.98578			43096.66989		128.54800		797.00000 
 43692.65567		 305.27265			43387.38302		66.57000		324.00000 
 43692.65567		 595.98578			43096.66989		128.54800		797.00000 
 43692.65567		 305.27265			43387.38302		66.57000		324.00000 
 43692.65567		 595.98578			43096.66989		128.54800		797.00000 
 43692.65567		 305.27265			43387.38302		66.57000		324.00000 
 43692.65567		 595.98578			43096.66989		128.54800		797.00000 
 43692.65567		 305.27265			43387.38302		66.57000		324.00000 
 43692.65567		 595.98578			43096.66989		128.54800		797.00000 
 43692.65567		 305.27265			43387.38302		66.57000		324.00000 
 43692.65567		 595.98578			43096.66989		128.54800		797.00000 
 43692.65567		 305.27265			43387.38302		66.57000		324.00000 
 43692.65567		 595.98578			43096.66989		128.54800		797.00000 
 43692.65567		 305.27265			43387.38302		66.57000		324.00000 
 43692.65567		 595.98578			43096.66989		128.54800		797.00000 
 43692.65567		 305.27265			43387.38302		66.57000		324.00000 
 43692.65567		 595.98578			43096.66989		128.54800		797.00000 
 43692.65567		 305.27265			43387.38302		66.57000		324.00000 
 43692.65567		 595.98578			43096.66989		128.54800		797.00000 
 43692.65567		 305.27265			43387.38302		66.57000		324.00000 
 43692.65567		 595.98578			43096.66989		128.54800		797.00000 
 43692.65567		 305.27265			43387.38302		66.57000		324.00000 
 43692.65567		 595.98578			43096.66989		128.54800		797.00000 
 43692.65567		 305.27265			43387.38302		66.57000		324.00000 
 43692.65567		 595.98578			43096.66989		128.54800		797.00000 
 43692.65567		 305.27265			43387.38302		66.57000		324.00000 
 43692.65567		 595.98578			43096.66989		128.54800		797.00000 
 43692.65567		 305.27265			43387.38302		66.57000		324.00000 
 43692.65567		 595.98578			43096.66989		128.54800		797.00000 
 43692.65567		 305.27265			43387.38302		66.57000		324.00000 
 43692.65567		 595.98578			43096.66989		153.08400		797.00000 
 43692.65567		 305.27265			43387.38302		66.57000		324.00000 
 43692.65567		 595.98578			43096.66989		153.08400		797.00000 
 43692.65567		 305.27265			43387.38302		66.57000		324.00000 
 43692.65567		 595.98578			43096.66989		153.08400		797.00000 
 43692.65567		 305.27265			43387.38302		66.57000		324.00000 
 43692.65567		 595.98578			43096.66989		153.08400		797.00000 
 43692.65567		 305.27265			43387.38302		66.57000		324.00000 
 43692.65567		 595.98578			43096.66989		153.08400		797.00000 
 43692.65567		 305.27265			43387.38302		66.57000		324.00000 
 43692.65567		 595.98578			43096.66989		153.08400		797.00000 
 43692.65567		 305.27265			43387.38302		66.57000		324.00000 
 43692.65567		 595.98578			43096.66989		153.08400		797.00000 
 43692.65567		 305.27265			43387.38302		66.57000		324.00000 
 43692.65567		 595.98578			43096.66989		153.08400		797.00000 
 43692.65567		 305.27265			43387.38302		66.57000		324.00000 
 43692.65567		 595.98578			43096.66989		153.08400		797.00000 
 43692.65567		 305.27265			43387.38302		66.57000		324.00000 
 43692.65567		 595.98578			43096.66989		153.08400		797.00000 
 43692.65567		 305.27265			43387.38302		66.57000		324.00000 
 43692.65567		 595.98578			43096.66989		153.08400		797.00000 
 43692.65567		 305.27265			43387.38302		66.57000		324.00000 
 43692.65567		 595.98578			43096.66989		153.08400		797.00000 
 43692.65567		 305.27265			43387.38302		66.57000		324.00000 
 43692.65567		 595.98578			43096.66989		153.08400		797.00000 
 43692.65567		 305.27265			43387.38302		66.57000		324.00000 
 43692.65567		 595.98578			43096.66989		153.08400		797.00000 
 43692.65567		 305.27265			43387.38302		66.57000		324.00000 
 43692.65567		 595.98578			43096.66989		153.08400		797.00000 
 43692.65567		 305.27265			43387.38302		66.57000		324.00000 
 43692.65567		 595.98578			43096.66989		153.08400		797.00000 
 43692.65567		 305.27265			43387.38302		66.57000		324.00000 
 43692.65567		 595.98578			43096.66989		153.08400		797.00000 
 43692.65567		 305.27265			43387.38302		66.57000		324.00000 
 43692.65567		 595.98578			43096.66989		153.08400		797.00000 
 43692.65567		 305.27265			43387.38302		66.57000		324.00000 
 43692.65567		 595.98578			43096.66989		153.08400		797.00000 
 43692.65567		 305.27265			43387.38302		66.57000		324.00000 
 43692.65567		 595.98578			43096.66989		153.08400		797.00000 
 43692.65567		 305.27265			43387.38302		66.57000		324.00000 
 43692.65567		 595.98578			43096.66989		153.08400		797.00000 
 43692.65567		 305.27265			43387.38302		66.57000		324.00000 
 43692.65567		 595.98578			43096.66989		153.08400		797.00000 
 43692.65567		 305.27265			43387.38302		66.57000		324.00000 
 43692.65567		 595.98578			43096.66989		153.08400		797.00000 
 43692.65567		 305.27265			43387.38302		66.57000		324.00000 
 43692.65567		 595.98578			43096.66989		153.08400		797.00000 
 43692.65567		 305.27265			43387.38302		66.57000		324.00000 
 43692.65567		 595.98578			43096.66989		153.08400		797.00000 
 43692.65567		 305.27265			43387.38302		66.57000		324.00000 
 43692.65567		 595.98578			43096.66989		153.08400		797.00000 
 43692.65567		 305.27265			43387.38302		66.57000		324.00000 
 43692.65567		 595.98578			43096.66989		153.08400		797.00000 
 43692.65567		 305.27265			43387.38302		66.57000		324.00000 
 43692.65567		 595.98578			43096.66989		153.08400		797.00000 
 43692.65567		 305.27265			43387.38302		66.57000		324.00000 
 43692.65567		 595.98578			43096.66989		153.08400		797.00000 
 43692.65567		 305.27265			43387.38302		66.57000		324.00000 
 43692.65567		 595.98578			43096.66989		153.08400		797.00000 
 43692.65567		 305.27265			43387.38302		66.57000		324.00000 
 43692.65567		 595.98578			43096.66989		153.08400		797.00000 
 43692.65567		 305.27265			43387.38302		66.57000		324.00000 
 43692.65567		 595.98578			43096.66989		153.08400		797.00000 
 43692.65567		 305.27265			43387.38302		66.57000		324.00000 
 43692.65567		 595.98578			43096.66989		153.08400		797.00000 
 43692.65567		 305.27265			43387.38302		66.57000		324.00000 
 43692.65567		 595.98578			43096.66989		153.08400		797.00000 
 43692.65567		 305.27265			43387.38302		66.57000		324.00000 
 43692.65567		 595.98578			43096.66989		153.08400		797.00000 
 43692.65567		 305.27265			43387.38302		66.57000		324.00000 
 43692.65567		 595.98578			43096.66989		153.08400		797.00000 
 43692.65567		 305.27265			43387.38302		66.57000		324.00000 
 43692.65567		 595.98578			43096.66989		153.08400		797.00000 
 43692.65567		 305.27265			43387.38302		66.57000		324.00000 
 43692.65567		 595.98578			43096.66989		153.08400		797.00000 
 43692.65567		 305.27265			43387.38302		66.57000		324.00000 
 43692.65567		 595.98578			43096.66989		153.08400		797.00000 
 43692.65567		 305.27265			43387.38302		66.57000		324.00000 
 43692.65567		 595.98578			43096.66989		153.08400		797.00000 
 43692.65567		 305.27265			43387.38302		66.57000		324.00000 
 43692.65567		 595.98578			43096.66989		153.08400		797.00000 
 43692.65567		 305.27265			43387.38302		66.57000		324.00000 
 43692.65567		 595.98578			43096.66989		153.08400		797.00000 
 43692.65567		 305.27265			43387.38302		66.57000		324.00000 
 43692.65567		 595.98578			43096.66989		153.08400		797.00000 
 43692.65567		 305.27265			43387.38302		66.57000		324.00000 
 43692.65567		 595.98578			43096.66989		153.08400		797.00000 
 43692.65567		 305.27265			43387.38302		66.57000		324.00000 
 43692.65567		 595.98578			43096.66989		153.08400		797.00000 
 43692.65567		 305.27265			43387.38302		66.57000		324.00000 
 43692.65567		 595.98578			43096.66989		153.08400		797.00000 
 43692.65567		 305.27265			43387.38302		66.57000		324.00000 
 43692.65567		 595.98578			43096.66989		153.08400		797.00000 
 43692.65567		 305.27265			43387.38302		66.57000		324.00000 
 43692.65567		 595.98578			43096.66989		153.08400		797.00000 
 43692.65567		 305.27265			43387.38302		66.57000		324.00000 
 43692.65567		 595.98578			43096.66989		153.08400		797.00000 
 43692.65567		 305.27265			43387.38302		66.57000		324.00000 
 43692.65567		 595.98578			43096.66989		153.08400		797.00000 
 43692.65567		 305.27265			43387.38302		66.57000		324.00000 
 43692.65567		 595.98578			43096.66989		153.08400		797.00000 
 43692.65567		 305.27265			43387.38302		66.57000		324.00000 
 43692.65567		 595.98578			43096.66989		153.08400		797.00000 
 43692.65567		 305.27265			43387.38302		66.57000		324.00000 
 43692.65567		 595.98578			43096.66989		153.08400		797.00000 
 43692.65567		 305.27265			43387.38302		66.57000		324.00000 
 43692.65567		 595.98578			43096.66989		153.08400		797.00000 
 43692.65567		 305.27265			43387.38302		66.57000		324.00000 
 43692.65567		 595.98578			43096.66989		153.08400		797.00000 
 43692.65567		 305.27265			43387.38302		66.57000		324.00000 
 43692.65567		 595.98578			43096.66989		153.08400		797.00000 
 43692.65567		 305.27265			43387.38302		66.57000		324.00000 
 43692.65567		 595.98578			43096.66989		153.08400		797.00000 
 43692.65567		 305.27265			43387.38302		66.57000		324.00000 
 43692.65567		 595.98578			43096.66989		153.08400		797.00000 
 43692.65567		 305.27265			43387.38302		66.57000		324.00000 
 43692.65567		 595.98578			43096.66989		153.08400		797.00000 
 43692.65567		 305.27265			43387.38302		66.57000		324.00000 
 43692.65567		 595.98578			43096.66989		153.08400		797.00000 
 43692.65567		 305.27265			43387.38302		66.57000		324.00000 
 43692.65567		 595.98578			43096.66989		153.08400		797.00000 
 43692.65567		 305.27265			43387.38302		66.57000		324.00000 
 43692.65567		 595.98578			43096.66989		153.08400		797.00000 
 43692.65567		 305.27265			43387.38302		66.57000		324.00000 
 43692.65567		 595.98578			43096.66989		153.08400		797.00000 
 43692.65567		 305.27265			43387.38302		66.57000		324.00000 
 43692.65567		 595.98578			43096.66989		153.08400		797.00000 
 43692.65567		 305.27265			43387.38302		66.57000		324.00000 
 43692.65567		 595.98578			43096.66989		182.35600		797.00000 
 43692.65567		 305.27265			43387.38302		66.57000		324.00000 
 43692.65567		 595.98578			43096.66989		182.35600		797.00000 
 43692.65567		 305.27265			43387.38302		66.57000		324.00000 
 43692.65567		 595.98578			43096.66989		182.35600		797.00000 
 43692.65567		 305.27265			43387.38302		66.57000		324.00000 
 43692.65567		 595.98578			43096.66989		182.35600		797.00000 
 43692.65567		 305.27265			43387.38302		66.57000		324.00000 
 43692.65567		 595.98578			43096.66989		182.35600		797.00000 
 43692.65567		 305.27265			43387.38302		66.57000		324.00000 
 43692.65567		 595.98578			43096.66989		182.35600		797.00000 
 43692.65567		 305.27265			43387.38302		66.57000		324.00000 
 43692.65567		 595.98578			43096.66989		182.35600		797.00000 
 43692.65567		 305.27265			43387.38302		66.57000		324.00000 
 43692.65567		 595.98578			43096.66989		182.35600		797.00000 
 43692.65567		 305.27265			43387.38302		66.57000		324.00000 
 43692.65567		 595.98578			43096.66989		182.35600		797.00000 
 43692.65567		 305.27265			43387.38302		66.57000		324.00000 
 43692.65567		 595.98578			43096.66989		182.35600		797.00000 
 43692.65567		 305.27265			43387.38302		66.57000		324.00000 
 43692.65567		 595.98578			43096.66989		182.35600		797.00000 
 43692.65567		 305.27265			43387.38302		66.57000		324.00000 
 43692.65567		 595.98578			43096.66989		182.35600		797.00000 
 43692.65567		 305.27265			43387.38302		66.57000		324.00000 
 43692.65567		 595.98578			43096.66989		182.35600		797.00000 
 43692.65567		 305.27265			43387.38302		66.57000		324.00000 
 43692.65567		 595.98578			43096.66989		182.35600		797.00000 
 43692.65567		 305.27265			43387.38302		66.57000		324.00000 
 43692.65567		 595.98578			43096.66989		182.35600		797.00000 
 43692.65567		 305.27265			43387.38302		66.57000		324.00000 
 43692.65567		 595.98578			43096.66989		182.35600		797.00000 
 43692.65567		 305.27265			43387.38302		66.57000		324.00000 
 43692.65567		 595.98578			43096.66989		182.35600		797.00000 
 43692.65567		 305.27265			43387.38302		66.57000		324.00000 
 43692.65567		 595.98578			43096.66989		182.35600		797.00000 
 43692.65567		 305.27265			43387.38302		66.57000		324.00000 
 43692.65567		 595.98578			43096.66989		182.35600		797.00000 
 43692.65567		 305.27265			43387.38302		66.57000		324.00000 
 43692.65567		 595.98578			43096.66989		182.35600		797.00000 
 43692.65567		 305.27265			43387.38302		66.57000		324.00000 
 43692.65567		 595.98578			43096.66989		182.35600		797.00000 
 43692.65567		 305.27265			43387.38302		66.57000		324.00000 
 43692.65567		 595.98578			43096.66989		182.35600		797.00000 
 43692.65567		 305.27265			43387.38302		66.57000		324.00000 
 43692.65567		 595.98578			43096.66989		182.35600		797.00000 
 43692.65567		 305.27265			43387.38302		66.57000		324.00000 
 43692.65567		 595.98578			43096.66989		182.35600		797.00000 
 43692.65567		 305.27265			43387.38302		66.57000		324.00000 
 43692.65567		 595.98578			43096.66989		182.35600		797.00000 
 43692.65567		 305.27265			43387.38302		66.57000		324.00000 
 43692.65567		 595.98578			43096.66989		182.35600		797.00000 
 43692.65567		 305.27265			43387.38302		66.57000		324.00000 
 43692.65567		 595.98578			43096.66989		182.35600		797.00000 
 43692.65567		 305.27265			43387.38302		66.57000		324.00000 
 43692.65567		 595.98578			43096.66989		182.35600		797.00000 
 43692.65567		 305.27265			43387.38302		66.57000		324.00000 
 43692.65567		 595.98578			43096.66989		182.35600		797.00000 
 43692.65567		 305.27265			43387.38302		66.57000		324.00000 
 43692.65567		 595.98578			43096.66989		182.35600		797.00000 
 43692.65567		 305.27265			43387.38302		66.57000		324.00000 
 43692.65567		 595.98578			43096.66989		182.35600		797.00000 
 43692.65567		 305.27265			43387.38302		66.57000		324.00000 
 43692.65567		 595.98578			43096.66989		182.35600		797.00000 
 43692.65567		 305.27265			43387.38302		66.57000		324.00000 
 43692.65567		 595.98578			43096.66989		182.35600		797.00000 
 43692.65567		 305.27265			43387.38302		66.57000		324.00000 
 43692.65567		 595.98578			43096.66989		182.35600		797.00000 
 43692.65567		 305.27265			43387.38302		66.57000		324.00000 
 43692.65567		 595.98578			43096.66989		182.35600		797.00000 
 43692.65567		 305.27265			43387.38302		66.57000		324.00000 
 43692.65567		 595.98578			43096.66989		182.35600		797.00000 
 43692.65567		 305.27265			43387.38302		66.57000		324.00000 
 43692.65567		 595.98578			43096.66989		182.35600		797.00000 
 43692.65567		 305.27265			43387.38302		66.57000		324.00000 
 43692.65567		 595.98578			43096.66989		182.35600		797.00000 
 43692.65567		 305.27265			43387.38302		66.57000		324.00000 
 43692.65567		 595.98578			43096.66989		182.35600		797.00000 
 43692.65567		 305.27265			43387.38302		66.57000		324.00000 
 43692.65567		 595.98578			43096.66989		182.35600		797.00000 
 43692.65567		 305.27265			43387.38302		66.57000		324.00000 
 43692.65567		 595.98578			43096.66989		182.35600		875.00000 
 43692.65567		 305.27265			43387.38302		66.57000		324.00000 
 43692.65567		 595.98578			43096.66989		182.35600		875.00000 
 43692.65567		 305.27265			43387.38302		66.57000		324.00000 
 43692.65567		 595.98578			43096.66989		182.35600		875.00000 
 43692.65567		 305.27265			43387.38302		66.57000		324.00000 
 43692.65567		 595.98578			43096.66989		182.35600		875.00000 
 43692.65567		 305.27265			43387.38302		66.57000		324.00000 
 43692.65567		 595.98578			43096.66989		182.35600		875.00000 
 43692.65567		 305.27265			43387.38302		66.57000		324.00000 
 43692.65567		 595.98578			43096.66989		182.35600		875.00000 
 43692.65567		 305.27265			43387.38302		66.57000		324.00000 
 43692.65567		 595.98578			43096.66989		182.35600		875.00000 
 43692.65567		 305.27265			43387.38302		66.57000		324.00000 
 43692.65567		 595.98578			43096.66989		182.35600		875.00000 
 43692.65567		 305.27265			43387.38302		66.57000		324.00000 
 43692.65567		 595.98578			43096.66989		182.35600		875.00000 
 43692.65567		 305.27265			43387.38302		66.57000		324.00000 
 43692.65567		 595.98578			43096.66989		182.35600		875.00000 
 43692.65567		 305.27265			43387.38302		66.57000		324.00000 
 43692.65567		 595.98578			43096.66989		182.35600		875.00000 
 43692.65567		 305.27265			43387.38302		66.57000		324.00000 
 43692.65567		 595.98578			43096.66989		182.35600		875.00000 
 43692.65567		 305.27265			43387.38302		66.57000		324.00000 
 43692.65567		 595.98578			43096.66989		182.35600		875.00000 
 43692.65567		 305.27265			43387.38302		66.57000		324.00000 
 43692.65567		 595.98578			43096.66989		182.35600		875.00000 
 43692.65567		 305.27265			43387.38302		66.57000		324.00000 
 43692.65567		 595.98578			43096.66989		182.35600		875.00000 
 43692.65567		 305.27265			43387.38302		66.57000		324.00000 
 43692.65567		 595.98578			43096.66989		182.35600		875.00000 
 43692.65567		 305.27265			43387.38302		66.57000		324.00000 
 43692.65567		 595.98578			43096.66989		182.35600		875.00000 
 43692.65567		 305.27265			43387.38302		66.57000		324.00000 
 43692.65567		 595.98578			43096.66989		182.35600		875.00000 
 43692.65567		 305.27265			43387.38302		66.57000		324.00000 
 43692.65567		 595.98578			43096.66989		182.35600		875.00000 
 43692.65567		 305.27265			43387.38302		66.57000		324.00000 
 43692.65567		 595.98578			43096.66989		182.35600		875.00000 
 43692.65567		 305.27265			43387.38302		66.57000		324.00000 
 43692.65567		 595.98578			43096.66989		182.35600		875.00000 
 43692.65567		 305.27265			43387.38302		66.57000		324.00000 
 43692.65567		 595.98578			43096.66989		182.35600		875.00000 
 43692.65567		 305.27265			43387.38302		66.57000		324.00000 
 43692.65567		 595.98578			43096.66989		182.35600		875.00000 
 43692.65567		 305.27265			43387.38302		66.57000		324.00000 
 43692.65567		 595.98578			43096.66989		199.77400		875.00000 
 43692.65567		 305.27265			43387.38302		66.57000		324.00000 
 43692.65567		 595.98578			43096.66989		199.77400		875.00000 
 43692.65567		 305.27265			43387.38302		66.57000		324.00000 
 43692.65567		 595.98578			43096.66989		199.77400		875.00000 
 43692.65567		 305.27265			43387.38302		66.57000		324.00000 
 43692.65567		 595.98578			43096.66989		199.77400		875.00000 
 43692.65567		 305.27265			43387.38302		66.57000		324.00000 
 43692.65567		 595.98578			43096.66989		199.77400		875.00000 
 43692.65567		 305.27265			43387.38302		66.57000		324.00000 
 43692.65567		 595.98578			43096.66989		199.77400		875.00000 
 43692.65567		 305.27265			43387.38302		66.57000		324.00000 
 43692.65567		 595.98578			43096.66989		199.77400		875.00000 
 43692.65567		 305.27265			43387.38302		66.57000		324.00000 
 43692.65567		 595.98578			43096.66989		199.77400		875.00000 
 43692.65567		 305.27265			43387.38302		66.57000		324.00000 
 43692.65567		 595.98578			43096.66989		199.77400		875.00000 
 43692.65567		 305.27265			43387.38302		66.57000		324.00000 
 43692.65567		 595.98578			43096.66989		199.77400		875.00000 
 43692.65567		 305.27265			43387.38302		66.57000		324.00000 
 43692.65567		 595.98578			43096.66989		199.77400		875.00000 
 43692.65567		 305.27265			43387.38302		66.57000		324.00000 
 43692.65567		 595.98578			43096.66989		199.77400		875.00000 
 43692.65567		 305.27265			43387.38302		66.57000		324.00000 
 43692.65567		 595.98578			43096.66989		199.77400		875.00000 
 43692.65567		 305.27265			43387.38302		66.57000		324.00000 
 43692.65567		 595.98578			43096.66989		199.77400		875.00000 
 43692.65567		 305.27265			43387.38302		66.57000		324.00000 
 43692.65567		 595.98578			43096.66989		199.77400		875.00000 
 43692.65567		 305.27265			43387.38302		66.57000		324.00000 
 43692.65567		 595.98578			43096.66989		199.77400		875.00000 
 43692.65567		 305.27265			43387.38302		66.57000		324.00000 
 43692.65567		 595.98578			43096.66989		199.77400		875.00000 
 43692.65567		 305.27265			43387.38302		66.57000		324.00000 
 43692.65567		 595.98578			43096.66989		199.77400		875.00000 
 43692.65567		 305.27265			43387.38302		66.57000		324.00000 
 43692.65567		 595.98578			43096.66989		199.77400		875.00000 
 43692.65567		 305.27265			43387.38302		66.57000		324.00000 
 43692.65567		 595.98578			43096.66989		199.77400		875.00000 
 43692.65567		 305.27265			43387.38302		66.57000		324.00000 
 43692.65567		 595.98578			43096.66989		199.77400		875.00000 
 43692.65567		 305.27265			43387.38302		66.57000		324.00000 
 43692.65567		 595.98578			43096.66989		199.77400		875.00000 
 43692.65567		 305.27265			43387.38302		66.57000		324.00000 
 43692.65567		 595.98578			43096.66989		199.77400		875.00000 
 43692.65567		 305.27265			43387.38302		66.57000		324.00000 
 43692.65567		 595.98578			43096.66989		199.77400		875.00000 
 43692.65567		 305.27265			43387.38302		66.57000		324.00000 
 43692.65567		 595.98578			43096.66989		199.77400		875.00000 
 43692.65567		 305.27265			43387.38302		66.57000		324.00000 
 43692.65567		 595.98578			43096.66989		199.77400		875.00000 
 43692.65567		 305.27265			43387.38302		66.57000		324.00000 
 43692.65567		 595.98578			43096.66989		199.77400		875.00000 
 43692.65567		 305.27265			43387.38302		66.57000		324.00000 
 43692.65567		 595.98578			43096.66989		199.77400		875.00000 
 43692.65567		 305.27265			43387.38302		66.57000		324.00000 
 43692.65567		 595.98578			43096.66989		199.77400		875.00000 
 43692.65567		 305.27265			43387.38302		66.57000		324.00000 
 43692.65567		 595.98578			43096.66989		199.77400		875.00000 
 43692.65567		 305.27265			43387.38302		66.57000		324.00000 
 43692.65567		 595.98578			43096.66989		199.77400		875.00000 
 43692.65567		 305.27265			43387.38302		66.57000		324.00000 
 43692.65567		 595.98578			43096.66989		199.77400		875.00000 
 43692.65567		 305.27265			43387.38302		66.57000		324.00000 
 43692.65567		 595.98578			43096.66989		199.77400		875.00000 
 43692.65567		 305.27265			43387.38302		66.57000		324.00000 
 43692.65567		 595.98578			43096.66989		199.77400		875.00000 
 43692.65567		 305.27265			43387.38302		66.57000		324.00000 
 43692.65567		 595.98578			43096.66989		199.77400		875.00000 
 43692.65567		 305.27265			43387.38302		66.57000		324.00000 
 43692.65567		 595.98578			43096.66989		199.77400		875.00000 
 43692.65567		 305.27265			43387.38302		66.57000		324.00000 
 43692.65567		 595.98578			43096.66989		199.77400		875.00000 
 43692.65567		 305.27265			43387.38302		66.57000		324.00000 
 43692.65567		 595.98578			43096.66989		199.77400		875.00000 
 43692.65567		 305.27265			43387.38302		66.57000		324.00000 
 43692.65567		 595.98578			43096.66989		199.77400		875.00000 
 43692.65567		 305.27265			43387.38302		66.57000		324.00000 
 43692.65567		 595.98578			43096.66989		199.77400		875.00000 
 43692.65567		 305.27265			43387.38302		66.57000		324.00000 
 43692.65567		 595.98578			43096.66989		199.77400		875.00000 
 43692.65567		 305.27265			43387.38302		66.57000		324.00000 
 43692.65567		 595.98578			43096.66989		199.77400		875.00000 
 43692.65567		 305.27265			43387.38302		66.57000		324.00000 
 43692.65567		 595.98578			43096.66989		199.77400		875.00000 
 43692.65567		 305.27265			43387.38302		66.57000		324.00000 
 43692.65567		 595.98578			43096.66989		199.77400		875.00000 
 43692.65567		 305.27265			43387.38302		66.57000		324.00000 
 43692.65567		 595.98578			43096.66989		199.77400		875.00000 
 43692.65567		 305.27265			43387.38302		66.57000		324.00000 
 43692.65567		 595.98578			43096.66989		199.77400		875.00000 
 43692.65567		 305.27265			43387.38302		66.57000		324.00000 
 43692.65567		 595.98578			43096.66989		199.77400		875.00000 
 43692.65567		 305.27265			43387.38302		66.57000		324.00000 
 43692.65567		 595.98578			43096.66989		199.77400		875.00000 
 43692.65567		 305.27265			43387.38302		66.57000		324.00000 
 43692.65567		 595.98578			43096.66989		199.77400		875.00000 
 43692.65567		 305.27265			43387.38302		66.57000		324.00000 
 43692.65567		 595.98578			43096.66989		199.77400		875.00000 
 43692.65567		 305.27265			43387.38302		66.57000		324.00000 
 43692.65567		 595.98578			43096.66989		199.77400		875.00000 
 43692.65567		 305.27265			43387.38302		66.57000		324.00000 
 43692.65567		 595.98578			43096.66989		199.77400		875.00000 
 43692.65567		 305.27265			43387.38302		66.57000		324.00000 
 43692.65567		 595.98578			43096.66989		199.77400		875.00000 
 43692.65567		 305.27265			43387.38302		66.57000		324.00000 
 43692.65567		 595.98578			43096.66989		199.77400		875.00000 
 43692.65567		 305.27265			43387.38302		66.57000		324.00000 
 43692.65567		 595.98578			43096.66989		199.77400		875.00000 
 43692.65567		 305.27265			43387.38302		66.57000		324.00000 
 43692.65567		 595.98578			43096.66989		199.77400		875.00000 
 43692.65567		 305.27265			43387.38302		66.57000		324.00000 
 43692.65567		 595.98578			43096.66989		199.77400		875.00000 
 43692.65567		 305.27265			43387.38302		66.57000		324.00000 
 43692.65567		 595.98578			43096.66989		199.77400		875.00000 
 43692.65567		 305.27265			43387.38302		66.57000		324.00000 
 43692.65567		 595.98578			43096.66989		199.77400		875.00000 
 43692.65567		 305.27265			43387.38302		66.57000		324.00000 
 43692.65567		 595.98578			43096.66989		199.77400		875.00000 
 43692.65567		 305.27265			43387.38302		66.57000		324.00000 
 43692.65567		 595.98578			43096.66989		199.77400		875.00000 
 43692.65567		 305.27265			43387.38302		66.57000		324.00000 
 43692.65567		 595.98578			43096.66989		199.77400		875.00000 
 43692.65567		 305.27265			43387.38302		66.57000		324.00000 
 43692.65567		 595.98578			43096.66989		199.77400		875.00000 
 43692.65567		 305.27265			43387.38302		66.57000		324.00000 
 43692.65567		 595.98578			43096.66989		199.77400		875.00000 
 43692.65567		 305.27265			43387.38302		66.57000		324.00000 
 43692.65567		 595.98578			43096.66989		212.73200		875.00000 
 43692.65567		 305.27265			43387.38302		66.57000		324.00000 
 43692.65567		 595.98578			43096.66989		212.73200		875.00000 
 43692.65567		 305.27265			43387.38302		66.57000		324.00000 
 43692.65567		 595.98578			43096.66989		212.73200		875.00000 
 43692.65567		 305.27265			43387.38302		66.57000		324.00000 
 43692.65567		 595.98578			43096.66989		212.73200		875.00000 
 43692.65567		 305.27265			43387.38302		66.57000		324.00000 
 43692.65567		 595.98578			43096.66989		212.73200		875.00000 
 43692.65567		 305.27265			43387.38302		66.57000		324.00000 
 43692.65567		 595.98578			43096.66989		212.73200		875.00000 
 43692.65567		 305.27265			43387.38302		66.57000		324.00000 
 43692.65567		 595.98578			43096.66989		212.73200		875.00000 
 43692.65567		 305.27265			43387.38302		66.57000		324.00000 
 43692.65567		 595.98578			43096.66989		212.73200		875.00000 
 43692.65567		 305.27265			43387.38302		66.57000		324.00000 
 43692.65567		 595.98578			43096.66989		212.73200		875.00000 
 43692.65567		 305.27265			43387.38302		66.57000		324.00000 
 43692.65567		 595.98578			43096.66989		212.73200		875.00000 
 43692.65567		 305.27265			43387.38302		66.57000		324.00000 
 43692.65567		 595.98578			43096.66989		212.73200		875.00000 
 43692.65567		 305.27265			43387.38302		66.57000		324.00000 
 43692.65567		 576.41396			43116.24171		212.73200		875.00000 
 43692.65567		 305.27265			43387.38302		66.57000		324.00000 
 43692.65567		 537.27032			43155.38535		212.73200		875.00000 
 43692.65567		 305.27265			43387.38302		66.57000		324.00000 
 43692.65567		 537.27032			43155.38535		212.73200		875.00000 
 43692.65567		 305.27265			43387.38302		66.57000		324.00000 
 43692.65567		 537.27032			43155.38535		212.73200		875.00000 
 43692.65567		 305.27265			43387.38302		66.57000		324.00000 
 43692.65567		 537.27032			43155.38535		212.73200		875.00000 
 43692.65567		 305.27265			43387.38302		66.57000		324.00000 
 43692.65567		 537.27032			43155.38535		212.73200		875.00000 
 43692.65567		 305.27265			43387.38302		66.57000		324.00000 
 43692.65567		 537.27032			43155.38535		212.73200		875.00000 
 43692.65567		 305.27265			43387.38302		66.57000		324.00000 
 43692.65567		 537.27032			43155.38535		212.73200		875.00000 
 43692.65567		 305.27265			43387.38302		66.57000		324.00000 
 43692.65567		 537.27032			43155.38535		212.73200		875.00000 
 43692.65567		 305.27265			43387.38302		66.57000		324.00000 
 43692.65567		 537.27032			43155.38535		212.73200		875.00000 
 43692.65567		 305.27265			43387.38302		66.57000		324.00000 
 43692.65567		 537.27032			43155.38535		212.73200		875.00000 
 43692.65567		 305.27265			43387.38302		66.57000		324.00000 
 43692.65567		 537.27032			43155.38535		212.73200		875.00000 
 43692.65567		 305.27265			43387.38302		66.57000		324.00000 
 43692.65567		 537.27032			43155.38535		212.73200		875.00000 
 43692.65567		 305.27265			43387.38302		66.57000		324.00000 
 43692.65567		 537.27032			43155.38535		212.73200		875.00000 
 43692.65567		 305.27265			43387.38302		66.57000		324.00000 
 43692.65567		 537.27032			43155.38535		212.73200		875.00000 
 43692.65567		 305.27265			43387.38302		66.57000		324.00000 
 43692.65567		 537.27032			43155.38535		212.73200		875.00000 
 43692.65567		 305.27265			43387.38302		66.57000		324.00000 
 43692.65567		 537.27032			43155.38535		212.73200		875.00000 
 43692.65567		 305.27265			43387.38302		66.57000		324.00000 
 43692.65567		 537.27032			43155.38535		212.73200		875.00000 
 43692.65567		 305.27265			43387.38302		66.57000		324.00000 
 43692.65567		 537.27032			43155.38535		212.73200		875.00000 
 43692.65567		 305.27265			43387.38302		66.57000		324.00000 
 43692.65567		 537.27032			43155.38535		212.73200		875.00000 
 43692.65567		 305.27265			43387.38302		66.57000		324.00000 
 43692.65567		 537.27032			43155.38535		212.73200		875.00000 
 43692.65567		 305.27265			43387.38302		66.57000		324.00000 
 43692.65567		 529.63254			43163.02313		212.73200		875.00000 
 43692.65567		 305.27265			43387.38302		66.57000		324.00000 
 43692.65567		 525.81365			43166.84203		212.73200		875.00000 
 43692.65567		 305.27265			43387.38302		66.57000		324.00000 
 43692.65567		 525.81365			43166.84203		212.73200		875.00000 
 43692.65567		 261.35540			43431.30027		66.57000		324.00000 
