Memory Total (MiB) 	 Memory Used (MiB) 	    Memory Free (MiB) 	 Power Drawed (W) 	 Clocks (Mhz) 	 
 43692.65567		 261.35540			43431.30027		206.98400		875.00000 
 43692.65567		 261.35540			43431.30027		69.66000		324.00000 
 43692.65567		 261.35540			43431.30027		206.98400		875.00000 
 43692.65567		 261.35540			43431.30027		69.66000		324.00000 
 43692.65567		 261.35540			43431.30027		206.98400		875.00000 
 43692.65567		 261.35540			43431.30027		69.66000		324.00000 
 43692.65567		 261.35540			43431.30027		206.98400		875.00000 
 43692.65567		 261.35540			43431.30027		69.66000		324.00000 
 43692.65567		 261.35540			43431.30027		206.98400		875.00000 
 43692.65567		 261.35540			43431.30027		69.66000		324.00000 
 43692.65567		 261.35540			43431.30027		206.98400		875.00000 
 43692.65567		 261.35540			43431.30027		69.66000		324.00000 
 43692.65567		 261.35540			43431.30027		206.98400		875.00000 
 43692.65567		 261.35540			43431.30027		69.66000		324.00000 
 43692.65567		 261.35540			43431.30027		206.98400		875.00000 
 43692.65567		 261.35540			43431.30027		69.66000		324.00000 
 43692.65567		 261.35540			43431.30027		206.98400		875.00000 
 43692.65567		 261.35540			43431.30027		69.66000		324.00000 
 43692.65567		 261.35540			43431.30027		206.98400		875.00000 
 43692.65567		 261.35540			43431.30027		69.66000		324.00000 
 43692.65567		 261.35540			43431.30027		160.75600		875.00000 
 43692.65567		 261.35540			43431.30027		69.66000		324.00000 
 43692.65567		 261.35540			43431.30027		160.75600		875.00000 
 43692.65567		 261.35540			43431.30027		69.66000		324.00000 
 43692.65567		 261.35540			43431.30027		160.75600		875.00000 
 43692.65567		 261.35540			43431.30027		69.66000		324.00000 
 43692.65567		 261.35540			43431.30027		160.75600		875.00000 
 43692.65567		 261.35540			43431.30027		69.66000		324.00000 
 43692.65567		 261.35540			43431.30027		160.75600		875.00000 
 43692.65567		 261.35540			43431.30027		69.66000		324.00000 
 43692.65567		 261.35540			43431.30027		160.75600		875.00000 
 43692.65567		 261.35540			43431.30027		69.66000		324.00000 
 43692.65567		 261.35540			43431.30027		160.75600		875.00000 
 43692.65567		 261.35540			43431.30027		69.66000		324.00000 
 43692.65567		 261.35540			43431.30027		160.75600		875.00000 
 43692.65567		 261.35540			43431.30027		69.66000		324.00000 
 43692.65567		 261.35540			43431.30027		160.75600		875.00000 
 43692.65567		 261.35540			43431.30027		69.66000		324.00000 
 43692.65567		 265.17429			43427.48138		160.75600		875.00000 
 43692.65567		 261.35540			43431.30027		69.66000		324.00000 
 43692.65567		 272.81207			43419.84360		160.75600		875.00000 
 43692.65567		 261.35540			43431.30027		69.66000		324.00000 
 43692.65567		 272.81207			43419.84360		160.75600		875.00000 
 43692.65567		 261.35540			43431.30027		69.66000		324.00000 
 43692.65567		 272.81207			43419.84360		160.75600		875.00000 
 43692.65567		 265.17429			43427.48138		69.66000		324.00000 
 43692.65567		 272.81207			43419.84360		160.75600		875.00000 
 43692.65567		 265.17429			43427.48138		69.66000		324.00000 
 43692.65567		 272.81207			43419.84360		160.75600		875.00000 
 43692.65567		 272.81207			43419.84360		69.66000		324.00000 
 43692.65567		 272.81207			43419.84360		160.75600		875.00000 
 43692.65567		 272.81207			43419.84360		69.66000		324.00000 
 43692.65567		 272.81207			43419.84360		160.75600		875.00000 
 43692.65567		 272.81207			43419.84360		69.66000		324.00000 
 43692.65567		 272.81207			43419.84360		160.75600		875.00000 
 43692.65567		 305.27265			43387.38302		69.66000		324.00000 
 43692.65567		 305.27265			43387.38302		160.75600		875.00000 
 43692.65567		 305.27265			43387.38302		69.66000		324.00000 
 43692.65567		 305.27265			43387.38302		160.75600		875.00000 
 43692.65567		 305.27265			43387.38302		69.66000		324.00000 
 43692.65567		 305.27265			43387.38302		160.75600		875.00000 
 43692.65567		 305.27265			43387.38302		69.66000		324.00000 
 43692.65567		 305.27265			43387.38302		160.75600		875.00000 
 43692.65567		 305.27265			43387.38302		69.66000		324.00000 
 43692.65567		 309.09154			43383.56413		160.75600		875.00000 
 43692.65567		 305.27265			43387.38302		69.66000		324.00000 
 43692.65567		 310.52363			43382.13204		160.75600		875.00000 
 43692.65567		 305.27265			43387.38302		69.66000		324.00000 
 43692.65567		 311.00099			43381.65468		160.75600		875.00000 
 43692.65567		 305.27265			43387.38302		69.66000		324.00000 
 43692.65567		 311.00099			43381.65468		160.75600		875.00000 
 43692.65567		 305.27265			43387.38302		69.66000		324.00000 
 43692.65567		 311.00099			43381.65468		160.75600		875.00000 
 43692.65567		 305.27265			43387.38302		69.66000		324.00000 
 43692.65567		 311.00099			43381.65468		160.75600		875.00000 
 43692.65567		 305.27265			43387.38302		69.66000		324.00000 
 43692.65567		 311.00099			43381.65468		160.75600		875.00000 
 43692.65567		 305.27265			43387.38302		69.66000		324.00000 
 43692.65567		 311.00099			43381.65468		160.75600		875.00000 
 43692.65567		 305.27265			43387.38302		69.66000		324.00000 
 43692.65567		 311.00099			43381.65468		160.75600		875.00000 
 43692.65567		 305.27265			43387.38302		69.66000		324.00000 
 43692.65567		 311.00099			43381.65468		142.59000		875.00000 
 43692.65567		 305.27265			43387.38302		69.66000		324.00000 
 43692.65567		 311.00099			43381.65468		142.59000		875.00000 
 43692.65567		 305.27265			43387.38302		69.66000		324.00000 
 43692.65567		 311.00099			43381.65468		142.59000		875.00000 
 43692.65567		 305.27265			43387.38302		69.66000		324.00000 
 43692.65567		 311.00099			43381.65468		142.59000		875.00000 
 43692.65567		 305.27265			43387.38302		69.66000		324.00000 
 43692.65567		 311.00099			43381.65468		142.59000		875.00000 
 43692.65567		 305.27265			43387.38302		69.66000		324.00000 
 43692.65567		 311.00099			43381.65468		142.59000		875.00000 
 43692.65567		 305.27265			43387.38302		69.66000		324.00000 
 43692.65567		 311.00099			43381.65468		142.59000		875.00000 
 43692.65567		 305.27265			43387.38302		69.66000		324.00000 
 43692.65567		 311.00099			43381.65468		142.59000		875.00000 
 43692.65567		 305.27265			43387.38302		69.66000		324.00000 
 43692.65567		 311.00099			43381.65468		142.59000		875.00000 
 43692.65567		 305.27265			43387.38302		69.66000		324.00000 
 43692.65567		 311.00099			43381.65468		142.59000		875.00000 
 43692.65567		 305.27265			43387.38302		69.66000		324.00000 
 43692.65567		 311.00099			43381.65468		142.59000		875.00000 
 43692.65567		 305.27265			43387.38302		69.66000		324.00000 
 43692.65567		 311.00099			43381.65468		142.59000		875.00000 
 43692.65567		 305.27265			43387.38302		69.66000		324.00000 
 43692.65567		 311.00099			43381.65468		142.59000		875.00000 
 43692.65567		 305.27265			43387.38302		69.66000		324.00000 
 43692.65567		 311.00099			43381.65468		142.59000		875.00000 
 43692.65567		 305.27265			43387.38302		69.66000		324.00000 
 43692.65567		 311.00099			43381.65468		142.59000		875.00000 
 43692.65567		 305.27265			43387.38302		69.66000		324.00000 
 43692.65567		 311.00099			43381.65468		142.59000		875.00000 
 43692.65567		 305.27265			43387.38302		69.66000		324.00000 
 43692.65567		 311.00099			43381.65468		142.59000		875.00000 
 43692.65567		 305.27265			43387.38302		69.66000		324.00000 
 43692.65567		 311.00099			43381.65468		142.59000		875.00000 
 43692.65567		 305.27265			43387.38302		69.66000		324.00000 
 43692.65567		 311.00099			43381.65468		142.59000		875.00000 
 43692.65567		 305.27265			43387.38302		69.66000		324.00000 
 43692.65567		 311.00099			43381.65468		142.59000		875.00000 
 43692.65567		 305.27265			43387.38302		69.66000		324.00000 
 43692.65567		 311.00099			43381.65468		142.59000		875.00000 
 43692.65567		 305.27265			43387.38302		69.66000		324.00000 
 43692.65567		 311.00099			43381.65468		142.59000		875.00000 
 43692.65567		 305.27265			43387.38302		69.66000		324.00000 
 43692.65567		 311.00099			43381.65468		142.59000		875.00000 
 43692.65567		 305.27265			43387.38302		69.66000		324.00000 
 43692.65567		 311.00099			43381.65468		142.59000		875.00000 
 43692.65567		 305.27265			43387.38302		69.66000		324.00000 
 43692.65567		 311.00099			43381.65468		142.59000		875.00000 
 43692.65567		 305.27265			43387.38302		69.66000		324.00000 
 43692.65567		 311.00099			43381.65468		142.59000		875.00000 
 43692.65567		 305.27265			43387.38302		69.66000		324.00000 
 43692.65567		 311.00099			43381.65468		142.59000		875.00000 
 43692.65567		 305.27265			43387.38302		69.66000		324.00000 
 43692.65567		 311.00099			43381.65468		142.59000		875.00000 
 43692.65567		 305.27265			43387.38302		69.66000		324.00000 
 43692.65567		 311.00099			43381.65468		142.59000		875.00000 
 43692.65567		 305.27265			43387.38302		69.66000		324.00000 
 43692.65567		 311.00099			43381.65468		142.59000		875.00000 
 43692.65567		 305.27265			43387.38302		69.66000		324.00000 
 43692.65567		 311.00099			43381.65468		142.59000		875.00000 
 43692.65567		 305.27265			43387.38302		69.66000		324.00000 
 43692.65567		 311.00099			43381.65468		142.59000		875.00000 
 43692.65567		 305.27265			43387.38302		69.66000		324.00000 
 43692.65567		 311.00099			43381.65468		135.62600		875.00000 
 43692.65567		 305.27265			43387.38302		69.66000		324.00000 
 43692.65567		 311.00099			43381.65468		135.62600		875.00000 
 43692.65567		 305.27265			43387.38302		69.66000		324.00000 
 43692.65567		 311.00099			43381.65468		135.62600		875.00000 
 43692.65567		 305.27265			43387.38302		69.66000		324.00000 
 43692.65567		 311.00099			43381.65468		135.62600		875.00000 
 43692.65567		 305.27265			43387.38302		69.66000		324.00000 
 43692.65567		 311.00099			43381.65468		135.62600		875.00000 
 43692.65567		 305.27265			43387.38302		69.66000		324.00000 
 43692.65567		 311.00099			43381.65468		135.62600		875.00000 
 43692.65567		 305.27265			43387.38302		69.66000		324.00000 
 43692.65567		 311.00099			43381.65468		135.62600		875.00000 
 43692.65567		 305.27265			43387.38302		69.66000		324.00000 
 43692.65567		 311.00099			43381.65468		135.62600		875.00000 
 43692.65567		 305.27265			43387.38302		69.66000		324.00000 
 43692.65567		 311.00099			43381.65468		135.62600		875.00000 
 43692.65567		 305.27265			43387.38302		69.66000		324.00000 
 43692.65567		 311.00099			43381.65468		135.62600		875.00000 
 43692.65567		 305.27265			43387.38302		69.66000		324.00000 
 43692.65567		 311.00099			43381.65468		135.62600		875.00000 
 43692.65567		 305.27265			43387.38302		69.66000		324.00000 
 43692.65567		 311.00099			43381.65468		135.62600		875.00000 
 43692.65567		 305.27265			43387.38302		69.66000		324.00000 
 43692.65567		 314.81988			43377.83579		135.62600		875.00000 
 43692.65567		 305.27265			43387.38302		69.66000		324.00000 
 43692.65567		 314.81988			43377.83579		135.62600		875.00000 
 43692.65567		 305.27265			43387.38302		69.66000		324.00000 
 43692.65567		 314.81988			43377.83579		135.62600		875.00000 
 43692.65567		 305.27265			43387.38302		69.66000		324.00000 
 43692.65567		 322.45767			43370.19801		135.62600		875.00000 
 43692.65567		 305.27265			43387.38302		69.66000		324.00000 
 43692.65567		 326.27656			43366.37912		135.62600		875.00000 
 43692.65567		 305.27265			43387.38302		69.66000		324.00000 
 43692.65567		 326.27656			43366.37912		135.62600		875.00000 
 43692.65567		 305.27265			43387.38302		69.66000		324.00000 
 43692.65567		 326.27656			43366.37912		135.62600		875.00000 
 43692.65567		 305.27265			43387.38302		69.66000		324.00000 
 43692.65567		 326.27656			43366.37912		135.62600		875.00000 
 43692.65567		 305.27265			43387.38302		69.66000		324.00000 
 43692.65567		 537.27032			43155.38535		135.62600		875.00000 
 43692.65567		 305.27265			43387.38302		69.66000		324.00000 
 43692.65567		 648.01818			43044.63749		135.62600		875.00000 
 43692.65567		 305.27265			43387.38302		69.66000		324.00000 
 43692.65567		 703.39211			42989.26356		135.62600		875.00000 
 43692.65567		 305.27265			43387.38302		69.66000		324.00000 
 43692.65567		 703.39211			42989.26356		135.62600		875.00000 
 43692.65567		 305.27265			43387.38302		69.66000		324.00000 
 43692.65567		 703.39211			42989.26356		135.62600		875.00000 
 43692.65567		 305.27265			43387.38302		69.66000		324.00000 
 43692.65567		 703.39211			42989.26356		135.62600		875.00000 
 43692.65567		 305.27265			43387.38302		69.66000		324.00000 
 43692.65567		 703.39211			42989.26356		135.62600		875.00000 
 43692.65567		 305.27265			43387.38302		69.66000		324.00000 
 43692.65567		 703.39211			42989.26356		135.62600		875.00000 
 43692.65567		 305.27265			43387.38302		69.66000		324.00000 
 43692.65567		 703.39211			42989.26356		135.62600		875.00000 
 43692.65567		 305.27265			43387.38302		69.66000		324.00000 
 43692.65567		 703.39211			42989.26356		135.62600		875.00000 
 43692.65567		 305.27265			43387.38302		69.66000		324.00000 
 43692.65567		 703.39211			42989.26356		135.62600		875.00000 
 43692.65567		 305.27265			43387.38302		69.66000		324.00000 
 43692.65567		 703.39211			42989.26356		135.62600		875.00000 
 43692.65567		 305.27265			43387.38302		69.66000		324.00000 
 43692.65567		 703.39211			42989.26356		135.62600		875.00000 
 43692.65567		 305.27265			43387.38302		69.66000		324.00000 
 43692.65567		 703.39211			42989.26356		135.62600		875.00000 
 43692.65567		 305.27265			43387.38302		69.66000		324.00000 
 43692.65567		 703.39211			42989.26356		135.62600		875.00000 
 43692.65567		 305.27265			43387.38302		69.66000		324.00000 
 43692.65567		 703.39211			42989.26356		135.62600		875.00000 
 43692.65567		 305.27265			43387.38302		69.66000		324.00000 
 43692.65567		 703.39211			42989.26356		135.62600		875.00000 
 43692.65567		 305.27265			43387.38302		69.66000		324.00000 
 43692.65567		 703.39211			42989.26356		135.62600		875.00000 
 43692.65567		 305.27265			43387.38302		69.66000		324.00000 
 43692.65567		 703.39211			42989.26356		135.62600		875.00000 
 43692.65567		 305.27265			43387.38302		69.66000		324.00000 
 43692.65567		 703.39211			42989.26356		135.62600		875.00000 
 43692.65567		 305.27265			43387.38302		69.66000		324.00000 
 43692.65567		 703.39211			42989.26356		135.62600		875.00000 
 43692.65567		 305.27265			43387.38302		69.66000		324.00000 
 43692.65567		 703.39211			42989.26356		135.62600		875.00000 
 43692.65567		 305.27265			43387.38302		69.66000		324.00000 
 43692.65567		 703.39211			42989.26356		135.62600		875.00000 
 43692.65567		 305.27265			43387.38302		69.66000		324.00000 
 43692.65567		 703.39211			42989.26356		135.62600		875.00000 
 43692.65567		 305.27265			43387.38302		69.66000		324.00000 
 43692.65567		 703.39211			42989.26356		135.62600		875.00000 
 43692.65567		 305.27265			43387.38302		69.66000		324.00000 
 43692.65567		 703.39211			42989.26356		135.62600		875.00000 
 43692.65567		 305.27265			43387.38302		69.66000		324.00000 
 43692.65567		 703.39211			42989.26356		162.34400		875.00000 
 43692.65567		 305.27265			43387.38302		69.66000		324.00000 
 43692.65567		 703.39211			42989.26356		162.34400		875.00000 
 43692.65567		 305.27265			43387.38302		69.66000		324.00000 
 43692.65567		 703.39211			42989.26356		162.34400		875.00000 
 43692.65567		 305.27265			43387.38302		69.66000		324.00000 
 43692.65567		 703.39211			42989.26356		162.34400		875.00000 
 43692.65567		 305.27265			43387.38302		69.66000		324.00000 
 43692.65567		 703.39211			42989.26356		162.34400		875.00000 
 43692.65567		 305.27265			43387.38302		69.66000		324.00000 
 43692.65567		 703.39211			42989.26356		162.34400		875.00000 
 43692.65567		 305.27265			43387.38302		69.66000		324.00000 
 43692.65567		 703.39211			42989.26356		162.34400		875.00000 
 43692.65567		 305.27265			43387.38302		69.66000		324.00000 
 43692.65567		 703.39211			42989.26356		162.34400		875.00000 
 43692.65567		 305.27265			43387.38302		69.66000		324.00000 
 43692.65567		 703.39211			42989.26356		162.34400		875.00000 
 43692.65567		 305.27265			43387.38302		69.66000		324.00000 
 43692.65567		 703.39211			42989.26356		162.34400		875.00000 
 43692.65567		 305.27265			43387.38302		69.66000		324.00000 
 43692.65567		 703.39211			42989.26356		162.34400		875.00000 
 43692.65567		 305.27265			43387.38302		69.66000		324.00000 
 43692.65567		 703.39211			42989.26356		162.34400		875.00000 
 43692.65567		 305.27265			43387.38302		69.66000		324.00000 
 43692.65567		 703.39211			42989.26356		162.34400		875.00000 
 43692.65567		 305.27265			43387.38302		69.66000		324.00000 
 43692.65567		 703.39211			42989.26356		162.34400		875.00000 
 43692.65567		 305.27265			43387.38302		69.66000		324.00000 
 43692.65567		 703.39211			42989.26356		162.34400		875.00000 
 43692.65567		 305.27265			43387.38302		69.66000		324.00000 
 43692.65567		 703.39211			42989.26356		162.34400		875.00000 
 43692.65567		 305.27265			43387.38302		69.66000		324.00000 
 43692.65567		 703.39211			42989.26356		162.34400		875.00000 
 43692.65567		 305.27265			43387.38302		69.66000		324.00000 
 43692.65567		 703.39211			42989.26356		162.34400		875.00000 
 43692.65567		 305.27265			43387.38302		69.66000		324.00000 
 43692.65567		 703.39211			42989.26356		162.34400		875.00000 
 43692.65567		 305.27265			43387.38302		69.66000		324.00000 
 43692.65567		 703.39211			42989.26356		162.34400		875.00000 
 43692.65567		 305.27265			43387.38302		69.66000		324.00000 
 43692.65567		 703.39211			42989.26356		162.34400		875.00000 
 43692.65567		 305.27265			43387.38302		69.66000		324.00000 
 43692.65567		 703.39211			42989.26356		162.34400		875.00000 
 43692.65567		 305.27265			43387.38302		69.66000		324.00000 
 43692.65567		 703.39211			42989.26356		162.34400		875.00000 
 43692.65567		 305.27265			43387.38302		69.66000		324.00000 
 43692.65567		 703.39211			42989.26356		162.34400		875.00000 
 43692.65567		 305.27265			43387.38302		69.66000		324.00000 
 43692.65567		 703.39211			42989.26356		162.34400		875.00000 
 43692.65567		 305.27265			43387.38302		69.66000		324.00000 
 43692.65567		 703.39211			42989.26356		162.34400		875.00000 
 43692.65567		 305.27265			43387.38302		69.66000		324.00000 
 43692.65567		 703.39211			42989.26356		162.34400		875.00000 
 43692.65567		 305.27265			43387.38302		69.66000		324.00000 
 43692.65567		 703.39211			42989.26356		162.34400		875.00000 
 43692.65567		 305.27265			43387.38302		69.66000		324.00000 
 43692.65567		 703.39211			42989.26356		162.34400		875.00000 
 43692.65567		 305.27265			43387.38302		69.66000		324.00000 
 43692.65567		 703.39211			42989.26356		162.34400		875.00000 
 43692.65567		 305.27265			43387.38302		69.66000		324.00000 
 43692.65567		 703.39211			42989.26356		162.34400		875.00000 
 43692.65567		 305.27265			43387.38302		69.66000		324.00000 
 43692.65567		 703.39211			42989.26356		162.34400		875.00000 
 43692.65567		 305.27265			43387.38302		69.66000		324.00000 
 43692.65567		 703.39211			42989.26356		162.34400		875.00000 
 43692.65567		 305.27265			43387.38302		69.66000		324.00000 
 43692.65567		 703.39211			42989.26356		162.34400		875.00000 
 43692.65567		 305.27265			43387.38302		69.66000		324.00000 
 43692.65567		 703.39211			42989.26356		162.34400		875.00000 
 43692.65567		 305.27265			43387.38302		69.66000		324.00000 
 43692.65567		 703.39211			42989.26356		162.34400		875.00000 
 43692.65567		 305.27265			43387.38302		69.66000		324.00000 
 43692.65567		 703.39211			42989.26356		162.34400		875.00000 
 43692.65567		 305.27265			43387.38302		69.66000		324.00000 
 43692.65567		 703.39211			42989.26356		162.34400		875.00000 
 43692.65567		 305.27265			43387.38302		69.66000		324.00000 
 43692.65567		 703.39211			42989.26356		162.34400		875.00000 
 43692.65567		 305.27265			43387.38302		69.66000		324.00000 
 43692.65567		 703.39211			42989.26356		162.34400		875.00000 
 43692.65567		 305.27265			43387.38302		69.66000		324.00000 
 43692.65567		 703.39211			42989.26356		162.34400		875.00000 
 43692.65567		 305.27265			43387.38302		69.66000		324.00000 
 43692.65567		 703.39211			42989.26356		162.34400		875.00000 
 43692.65567		 305.27265			43387.38302		69.66000		324.00000 
 43692.65567		 703.39211			42989.26356		162.34400		875.00000 
 43692.65567		 305.27265			43387.38302		69.66000		324.00000 
 43692.65567		 703.39211			42989.26356		162.34400		875.00000 
 43692.65567		 305.27265			43387.38302		69.66000		324.00000 
 43692.65567		 703.39211			42989.26356		162.34400		875.00000 
 43692.65567		 305.27265			43387.38302		69.66000		324.00000 
 43692.65567		 703.39211			42989.26356		162.34400		875.00000 
 43692.65567		 305.27265			43387.38302		69.66000		324.00000 
 43692.65567		 703.39211			42989.26356		162.34400		875.00000 
 43692.65567		 305.27265			43387.38302		69.66000		324.00000 
 43692.65567		 703.39211			42989.26356		162.34400		875.00000 
 43692.65567		 305.27265			43387.38302		69.66000		324.00000 
 43692.65567		 703.39211			42989.26356		162.34400		875.00000 
 43692.65567		 305.27265			43387.38302		69.66000		324.00000 
 43692.65567		 703.39211			42989.26356		162.34400		875.00000 
 43692.65567		 305.27265			43387.38302		69.66000		324.00000 
 43692.65567		 703.39211			42989.26356		162.34400		875.00000 
 43692.65567		 305.27265			43387.38302		69.66000		324.00000 
 43692.65567		 703.39211			42989.26356		162.34400		875.00000 
 43692.65567		 305.27265			43387.38302		69.66000		324.00000 
 43692.65567		 703.39211			42989.26356		162.34400		875.00000 
 43692.65567		 305.27265			43387.38302		69.66000		324.00000 
 43692.65567		 703.39211			42989.26356		162.34400		875.00000 
 43692.65567		 305.27265			43387.38302		69.66000		324.00000 
 43692.65567		 703.39211			42989.26356		162.34400		875.00000 
 43692.65567		 305.27265			43387.38302		69.66000		324.00000 
 43692.65567		 703.39211			42989.26356		162.34400		875.00000 
 43692.65567		 305.27265			43387.38302		69.66000		324.00000 
 43692.65567		 703.39211			42989.26356		162.34400		875.00000 
 43692.65567		 305.27265			43387.38302		69.66000		324.00000 
 43692.65567		 703.39211			42989.26356		162.34400		875.00000 
 43692.65567		 305.27265			43387.38302		69.66000		324.00000 
 43692.65567		 703.39211			42989.26356		162.34400		875.00000 
 43692.65567		 305.27265			43387.38302		69.66000		324.00000 
 43692.65567		 703.39211			42989.26356		162.34400		875.00000 
 43692.65567		 305.27265			43387.38302		69.66000		324.00000 
 43692.65567		 703.39211			42989.26356		162.34400		875.00000 
 43692.65567		 305.27265			43387.38302		69.66000		324.00000 
 43692.65567		 703.39211			42989.26356		162.34400		875.00000 
 43692.65567		 305.27265			43387.38302		69.66000		324.00000 
 43692.65567		 703.39211			42989.26356		162.34400		875.00000 
 43692.65567		 305.27265			43387.38302		69.66000		324.00000 
 43692.65567		 703.39211			42989.26356		162.34400		875.00000 
 43692.65567		 305.27265			43387.38302		69.66000		324.00000 
 43692.65567		 703.39211			42989.26356		162.34400		875.00000 
 43692.65567		 305.27265			43387.38302		69.66000		324.00000 
 43692.65567		 703.39211			42989.26356		203.36600		875.00000 
 43692.65567		 305.27265			43387.38302		69.66000		324.00000 
 43692.65567		 703.39211			42989.26356		203.36600		875.00000 
 43692.65567		 305.27265			43387.38302		69.66000		324.00000 
 43692.65567		 703.39211			42989.26356		203.36600		875.00000 
 43692.65567		 305.27265			43387.38302		69.66000		324.00000 
 43692.65567		 703.39211			42989.26356		203.36600		875.00000 
 43692.65567		 305.27265			43387.38302		69.66000		324.00000 
 43692.65567		 703.39211			42989.26356		203.36600		875.00000 
 43692.65567		 305.27265			43387.38302		69.66000		324.00000 
 43692.65567		 703.39211			42989.26356		203.36600		875.00000 
 43692.65567		 305.27265			43387.38302		69.66000		324.00000 
 43692.65567		 703.39211			42989.26356		203.36600		875.00000 
 43692.65567		 305.27265			43387.38302		69.66000		324.00000 
 43692.65567		 703.39211			42989.26356		203.36600		875.00000 
 43692.65567		 305.27265			43387.38302		69.66000		324.00000 
 43692.65567		 703.39211			42989.26356		203.36600		875.00000 
 43692.65567		 305.27265			43387.38302		69.66000		324.00000 
 43692.65567		 703.39211			42989.26356		203.36600		875.00000 
 43692.65567		 305.27265			43387.38302		69.66000		324.00000 
 43692.65567		 703.39211			42989.26356		203.36600		875.00000 
 43692.65567		 305.27265			43387.38302		69.66000		324.00000 
 43692.65567		 703.39211			42989.26356		203.36600		875.00000 
 43692.65567		 305.27265			43387.38302		69.66000		324.00000 
 43692.65567		 703.39211			42989.26356		203.36600		875.00000 
 43692.65567		 305.27265			43387.38302		69.66000		324.00000 
 43692.65567		 703.39211			42989.26356		203.36600		875.00000 
 43692.65567		 305.27265			43387.38302		69.66000		324.00000 
 43692.65567		 703.39211			42989.26356		203.36600		875.00000 
 43692.65567		 305.27265			43387.38302		69.66000		324.00000 
 43692.65567		 703.39211			42989.26356		203.36600		875.00000 
 43692.65567		 305.27265			43387.38302		69.66000		324.00000 
 43692.65567		 703.39211			42989.26356		203.36600		875.00000 
 43692.65567		 305.27265			43387.38302		69.66000		324.00000 
 43692.65567		 703.39211			42989.26356		203.36600		875.00000 
 43692.65567		 305.27265			43387.38302		69.66000		324.00000 
 43692.65567		 703.39211			42989.26356		203.36600		875.00000 
 43692.65567		 305.27265			43387.38302		69.66000		324.00000 
 43692.65567		 703.39211			42989.26356		203.36600		875.00000 
 43692.65567		 305.27265			43387.38302		69.66000		324.00000 
 43692.65567		 703.39211			42989.26356		203.36600		875.00000 
 43692.65567		 305.27265			43387.38302		69.66000		324.00000 
 43692.65567		 703.39211			42989.26356		203.36600		875.00000 
 43692.65567		 305.27265			43387.38302		69.66000		324.00000 
 43692.65567		 703.39211			42989.26356		203.36600		875.00000 
 43692.65567		 305.27265			43387.38302		69.66000		324.00000 
 43692.65567		 703.39211			42989.26356		203.36600		875.00000 
 43692.65567		 305.27265			43387.38302		69.66000		324.00000 
 43692.65567		 703.39211			42989.26356		203.36600		875.00000 
 43692.65567		 305.27265			43387.38302		69.66000		324.00000 
 43692.65567		 703.39211			42989.26356		203.36600		875.00000 
 43692.65567		 305.27265			43387.38302		69.66000		324.00000 
 43692.65567		 703.39211			42989.26356		203.36600		875.00000 
 43692.65567		 305.27265			43387.38302		69.66000		324.00000 
 43692.65567		 703.39211			42989.26356		203.36600		875.00000 
 43692.65567		 305.27265			43387.38302		69.66000		324.00000 
 43692.65567		 703.39211			42989.26356		203.36600		875.00000 
 43692.65567		 305.27265			43387.38302		69.66000		324.00000 
 43692.65567		 703.39211			42989.26356		203.36600		875.00000 
 43692.65567		 305.27265			43387.38302		69.66000		324.00000 
 43692.65567		 703.39211			42989.26356		203.36600		875.00000 
 43692.65567		 305.27265			43387.38302		69.66000		324.00000 
 43692.65567		 703.39211			42989.26356		203.36600		875.00000 
 43692.65567		 305.27265			43387.38302		69.66000		324.00000 
 43692.65567		 703.39211			42989.26356		203.36600		875.00000 
 43692.65567		 305.27265			43387.38302		69.66000		324.00000 
 43692.65567		 703.39211			42989.26356		203.36600		875.00000 
 43692.65567		 305.27265			43387.38302		69.66000		324.00000 
 43692.65567		 703.39211			42989.26356		203.36600		875.00000 
 43692.65567		 305.27265			43387.38302		69.66000		324.00000 
 43692.65567		 703.39211			42989.26356		203.36600		875.00000 
 43692.65567		 305.27265			43387.38302		69.66000		324.00000 
 43692.65567		 703.39211			42989.26356		203.36600		875.00000 
 43692.65567		 305.27265			43387.38302		69.66000		324.00000 
 43692.65567		 703.39211			42989.26356		203.36600		875.00000 
 43692.65567		 305.27265			43387.38302		69.66000		324.00000 
 43692.65567		 703.39211			42989.26356		203.36600		875.00000 
 43692.65567		 305.27265			43387.38302		69.66000		324.00000 
 43692.65567		 703.39211			42989.26356		203.36600		875.00000 
 43692.65567		 305.27265			43387.38302		69.66000		324.00000 
 43692.65567		 703.39211			42989.26356		203.36600		875.00000 
 43692.65567		 305.27265			43387.38302		69.66000		324.00000 
 43692.65567		 703.39211			42989.26356		203.36600		875.00000 
 43692.65567		 305.27265			43387.38302		69.66000		324.00000 
 43692.65567		 703.39211			42989.26356		203.36600		875.00000 
 43692.65567		 305.27265			43387.38302		69.66000		324.00000 
 43692.65567		 703.39211			42989.26356		203.36600		875.00000 
 43692.65567		 305.27265			43387.38302		69.66000		324.00000 
 43692.65567		 703.39211			42989.26356		203.36600		875.00000 
 43692.65567		 305.27265			43387.38302		69.66000		324.00000 
 43692.65567		 703.39211			42989.26356		203.36600		875.00000 
 43692.65567		 305.27265			43387.38302		69.66000		324.00000 
 43692.65567		 703.39211			42989.26356		203.36600		875.00000 
 43692.65567		 305.27265			43387.38302		69.66000		324.00000 
 43692.65567		 703.39211			42989.26356		203.36600		875.00000 
 43692.65567		 305.27265			43387.38302		69.66000		324.00000 
 43692.65567		 703.39211			42989.26356		203.36600		875.00000 
 43692.65567		 305.27265			43387.38302		69.66000		324.00000 
 43692.65567		 703.39211			42989.26356		203.36600		875.00000 
 43692.65567		 305.27265			43387.38302		69.66000		324.00000 
 43692.65567		 703.39211			42989.26356		203.36600		875.00000 
 43692.65567		 305.27265			43387.38302		69.66000		324.00000 
 43692.65567		 703.39211			42989.26356		203.36600		875.00000 
 43692.65567		 305.27265			43387.38302		69.66000		324.00000 
 43692.65567		 703.39211			42989.26356		203.36600		875.00000 
 43692.65567		 305.27265			43387.38302		69.66000		324.00000 
 43692.65567		 703.39211			42989.26356		203.36600		875.00000 
 43692.65567		 305.27265			43387.38302		69.66000		324.00000 
 43692.65567		 703.39211			42989.26356		203.36600		875.00000 
 43692.65567		 305.27265			43387.38302		69.66000		324.00000 
 43692.65567		 703.39211			42989.26356		203.36600		875.00000 
 43692.65567		 305.27265			43387.38302		69.66000		324.00000 
 43692.65567		 703.39211			42989.26356		203.36600		875.00000 
 43692.65567		 305.27265			43387.38302		69.66000		324.00000 
 43692.65567		 703.39211			42989.26356		203.36600		875.00000 
 43692.65567		 305.27265			43387.38302		69.66000		324.00000 
 43692.65567		 703.39211			42989.26356		203.36600		875.00000 
 43692.65567		 305.27265			43387.38302		69.66000		324.00000 
 43692.65567		 703.39211			42989.26356		203.36600		875.00000 
 43692.65567		 305.27265			43387.38302		69.66000		324.00000 
 43692.65567		 703.39211			42989.26356		203.36600		875.00000 
 43692.65567		 305.27265			43387.38302		69.66000		324.00000 
 43692.65567		 703.39211			42989.26356		203.36600		875.00000 
 43692.65567		 305.27265			43387.38302		69.66000		324.00000 
 43692.65567		 703.39211			42989.26356		203.36600		875.00000 
 43692.65567		 305.27265			43387.38302		69.66000		324.00000 
 43692.65567		 703.39211			42989.26356		203.36600		875.00000 
 43692.65567		 305.27265			43387.38302		69.66000		324.00000 
 43692.65567		 703.39211			42989.26356		203.36600		875.00000 
 43692.65567		 305.27265			43387.38302		69.66000		324.00000 
 43692.65567		 703.39211			42989.26356		218.21200		875.00000 
 43692.65567		 305.27265			43387.38302		69.66000		324.00000 
 43692.65567		 703.39211			42989.26356		218.21200		875.00000 
 43692.65567		 305.27265			43387.38302		69.66000		324.00000 
 43692.65567		 703.39211			42989.26356		218.21200		875.00000 
 43692.65567		 305.27265			43387.38302		69.66000		324.00000 
 43692.65567		 703.39211			42989.26356		218.21200		875.00000 
 43692.65567		 305.27265			43387.38302		69.66000		324.00000 
 43692.65567		 703.39211			42989.26356		218.21200		875.00000 
 43692.65567		 305.27265			43387.38302		69.66000		324.00000 
 43692.65567		 703.39211			42989.26356		218.21200		875.00000 
 43692.65567		 305.27265			43387.38302		69.66000		324.00000 
 43692.65567		 703.39211			42989.26356		218.21200		875.00000 
 43692.65567		 305.27265			43387.38302		69.66000		324.00000 
 43692.65567		 703.39211			42989.26356		218.21200		875.00000 
 43692.65567		 305.27265			43387.38302		69.66000		324.00000 
 43692.65567		 703.39211			42989.26356		218.21200		875.00000 
 43692.65567		 305.27265			43387.38302		69.66000		324.00000 
 43692.65567		 703.39211			42989.26356		218.21200		875.00000 
 43692.65567		 305.27265			43387.38302		69.66000		324.00000 
 43692.65567		 703.39211			42989.26356		218.21200		875.00000 
 43692.65567		 305.27265			43387.38302		69.66000		324.00000 
 43692.65567		 703.39211			42989.26356		218.21200		875.00000 
 43692.65567		 305.27265			43387.38302		69.66000		324.00000 
 43692.65567		 703.39211			42989.26356		218.21200		875.00000 
 43692.65567		 305.27265			43387.38302		69.66000		324.00000 
 43692.65567		 703.39211			42989.26356		218.21200		875.00000 
 43692.65567		 305.27265			43387.38302		69.66000		324.00000 
 43692.65567		 703.39211			42989.26356		218.21200		875.00000 
 43692.65567		 305.27265			43387.38302		69.66000		324.00000 
 43692.65567		 703.39211			42989.26356		218.21200		875.00000 
 43692.65567		 305.27265			43387.38302		69.66000		324.00000 
 43692.65567		 703.39211			42989.26356		218.21200		875.00000 
 43692.65567		 305.27265			43387.38302		69.66000		324.00000 
 43692.65567		 703.39211			42989.26356		218.21200		875.00000 
 43692.65567		 305.27265			43387.38302		69.66000		324.00000 
 43692.65567		 703.39211			42989.26356		218.21200		875.00000 
 43692.65567		 305.27265			43387.38302		69.66000		324.00000 
 43692.65567		 703.39211			42989.26356		218.21200		875.00000 
 43692.65567		 305.27265			43387.38302		69.66000		324.00000 
 43692.65567		 703.39211			42989.26356		218.21200		875.00000 
 43692.65567		 305.27265			43387.38302		69.66000		324.00000 
 43692.65567		 703.39211			42989.26356		218.21200		875.00000 
 43692.65567		 305.27265			43387.38302		69.66000		324.00000 
 43692.65567		 703.39211			42989.26356		218.21200		875.00000 
 43692.65567		 305.27265			43387.38302		69.66000		324.00000 
 43692.65567		 703.39211			42989.26356		218.21200		875.00000 
 43692.65567		 305.27265			43387.38302		69.66000		324.00000 
 43692.65567		 703.39211			42989.26356		218.21200		875.00000 
 43692.65567		 305.27265			43387.38302		69.66000		324.00000 
 43692.65567		 703.39211			42989.26356		218.21200		875.00000 
 43692.65567		 305.27265			43387.38302		69.66000		324.00000 
 43692.65567		 703.39211			42989.26356		218.21200		875.00000 
 43692.65567		 305.27265			43387.38302		69.66000		324.00000 
 43692.65567		 703.39211			42989.26356		218.21200		875.00000 
 43692.65567		 305.27265			43387.38302		69.66000		324.00000 
 43692.65567		 703.39211			42989.26356		218.21200		875.00000 
 43692.65567		 305.27265			43387.38302		69.66000		324.00000 
 43692.65567		 703.39211			42989.26356		218.21200		875.00000 
 43692.65567		 305.27265			43387.38302		69.66000		324.00000 
 43692.65567		 703.39211			42989.26356		218.21200		875.00000 
 43692.65567		 305.27265			43387.38302		69.66000		324.00000 
 43692.65567		 703.39211			42989.26356		218.21200		875.00000 
 43692.65567		 305.27265			43387.38302		69.66000		324.00000 
 43692.65567		 703.39211			42989.26356		218.21200		875.00000 
 43692.65567		 305.27265			43387.38302		69.66000		324.00000 
 43692.65567		 703.39211			42989.26356		218.21200		875.00000 
 43692.65567		 305.27265			43387.38302		69.66000		324.00000 
 43692.65567		 703.39211			42989.26356		218.21200		875.00000 
 43692.65567		 305.27265			43387.38302		69.66000		324.00000 
 43692.65567		 703.39211			42989.26356		218.21200		875.00000 
 43692.65567		 305.27265			43387.38302		69.66000		324.00000 
 43692.65567		 703.39211			42989.26356		218.21200		875.00000 
 43692.65567		 305.27265			43387.38302		69.66000		324.00000 
 43692.65567		 703.39211			42989.26356		218.21200		875.00000 
 43692.65567		 305.27265			43387.38302		69.66000		324.00000 
 43692.65567		 703.39211			42989.26356		218.21200		875.00000 
 43692.65567		 305.27265			43387.38302		69.66000		324.00000 
 43692.65567		 703.39211			42989.26356		218.21200		875.00000 
 43692.65567		 305.27265			43387.38302		69.66000		324.00000 
 43692.65567		 703.39211			42989.26356		218.21200		875.00000 
 43692.65567		 305.27265			43387.38302		69.66000		324.00000 
 43692.65567		 703.39211			42989.26356		218.21200		875.00000 
 43692.65567		 305.27265			43387.38302		69.66000		324.00000 
 43692.65567		 703.39211			42989.26356		218.21200		875.00000 
 43692.65567		 305.27265			43387.38302		69.66000		324.00000 
 43692.65567		 703.39211			42989.26356		218.21200		875.00000 
 43692.65567		 305.27265			43387.38302		69.66000		324.00000 
 43692.65567		 703.39211			42989.26356		218.21200		875.00000 
 43692.65567		 305.27265			43387.38302		69.66000		324.00000 
 43692.65567		 703.39211			42989.26356		218.21200		875.00000 
 43692.65567		 305.27265			43387.38302		69.66000		324.00000 
 43692.65567		 703.39211			42989.26356		218.21200		875.00000 
 43692.65567		 305.27265			43387.38302		69.66000		324.00000 
 43692.65567		 703.39211			42989.26356		218.21200		875.00000 
 43692.65567		 305.27265			43387.38302		69.66000		324.00000 
 43692.65567		 703.39211			42989.26356		218.21200		875.00000 
 43692.65567		 305.27265			43387.38302		69.66000		324.00000 
 43692.65567		 703.39211			42989.26356		218.21200		875.00000 
 43692.65567		 305.27265			43387.38302		69.66000		324.00000 
 43692.65567		 703.39211			42989.26356		218.21200		875.00000 
 43692.65567		 305.27265			43387.38302		69.66000		324.00000 
 43692.65567		 703.39211			42989.26356		218.21200		875.00000 
 43692.65567		 305.27265			43387.38302		69.66000		324.00000 
 43692.65567		 703.39211			42989.26356		218.21200		875.00000 
 43692.65567		 305.27265			43387.38302		69.66000		324.00000 
 43692.65567		 703.39211			42989.26356		218.21200		875.00000 
 43692.65567		 305.27265			43387.38302		69.66000		324.00000 
 43692.65567		 703.39211			42989.26356		218.21200		875.00000 
 43692.65567		 305.27265			43387.38302		69.66000		324.00000 
 43692.65567		 703.39211			42989.26356		218.21200		875.00000 
 43692.65567		 305.27265			43387.38302		69.66000		324.00000 
 43692.65567		 703.39211			42989.26356		218.21200		875.00000 
 43692.65567		 305.27265			43387.38302		69.66000		324.00000 
 43692.65567		 703.39211			42989.26356		218.21200		875.00000 
 43692.65567		 305.27265			43387.38302		69.66000		324.00000 
 43692.65567		 703.39211			42989.26356		218.21200		875.00000 
 43692.65567		 305.27265			43387.38302		69.66000		324.00000 
 43692.65567		 703.39211			42989.26356		218.21200		875.00000 
 43692.65567		 305.27265			43387.38302		69.66000		324.00000 
 43692.65567		 703.39211			42989.26356		218.21200		875.00000 
 43692.65567		 305.27265			43387.38302		69.66000		324.00000 
 43692.65567		 703.39211			42989.26356		218.21200		875.00000 
 43692.65567		 305.27265			43387.38302		69.66000		324.00000 
 43692.65567		 703.39211			42989.26356		218.21200		875.00000 
 43692.65567		 305.27265			43387.38302		69.66000		324.00000 
 43692.65567		 703.39211			42989.26356		218.21200		875.00000 
 43692.65567		 305.27265			43387.38302		69.66000		324.00000 
 43692.65567		 703.39211			42989.26356		218.21200		875.00000 
 43692.65567		 305.27265			43387.38302		69.66000		324.00000 
 43692.65567		 703.39211			42989.26356		223.37600		875.00000 
 43692.65567		 305.27265			43387.38302		69.66000		324.00000 
 43692.65567		 703.39211			42989.26356		223.37600		875.00000 
 43692.65567		 305.27265			43387.38302		69.66000		324.00000 
 43692.65567		 703.39211			42989.26356		223.37600		875.00000 
 43692.65567		 305.27265			43387.38302		69.66000		324.00000 
 43692.65567		 703.39211			42989.26356		223.37600		875.00000 
 43692.65567		 305.27265			43387.38302		69.66000		324.00000 
 43692.65567		 703.39211			42989.26356		223.37600		875.00000 
 43692.65567		 305.27265			43387.38302		69.66000		324.00000 
 43692.65567		 703.39211			42989.26356		223.37600		875.00000 
 43692.65567		 305.27265			43387.38302		69.66000		324.00000 
 43692.65567		 703.39211			42989.26356		223.37600		875.00000 
 43692.65567		 305.27265			43387.38302		69.66000		324.00000 
 43692.65567		 703.39211			42989.26356		223.37600		875.00000 
 43692.65567		 305.27265			43387.38302		69.66000		324.00000 
 43692.65567		 703.39211			42989.26356		223.37600		875.00000 
 43692.65567		 305.27265			43387.38302		69.66000		324.00000 
 43692.65567		 703.39211			42989.26356		223.37600		875.00000 
 43692.65567		 305.27265			43387.38302		69.66000		324.00000 
 43692.65567		 703.39211			42989.26356		223.37600		875.00000 
 43692.65567		 305.27265			43387.38302		69.66000		324.00000 
 43692.65567		 703.39211			42989.26356		223.37600		875.00000 
 43692.65567		 305.27265			43387.38302		69.66000		324.00000 
 43692.65567		 703.39211			42989.26356		223.37600		875.00000 
 43692.65567		 305.27265			43387.38302		69.66000		324.00000 
 43692.65567		 703.39211			42989.26356		223.37600		875.00000 
 43692.65567		 305.27265			43387.38302		69.66000		324.00000 
 43692.65567		 703.39211			42989.26356		223.37600		875.00000 
 43692.65567		 305.27265			43387.38302		69.66000		324.00000 
 43692.65567		 703.39211			42989.26356		223.37600		875.00000 
 43692.65567		 305.27265			43387.38302		69.66000		324.00000 
 43692.65567		 703.39211			42989.26356		223.37600		875.00000 
 43692.65567		 305.27265			43387.38302		69.66000		324.00000 
 43692.65567		 703.39211			42989.26356		223.37600		875.00000 
 43692.65567		 305.27265			43387.38302		69.66000		324.00000 
 43692.65567		 703.39211			42989.26356		223.37600		875.00000 
 43692.65567		 305.27265			43387.38302		69.66000		324.00000 
 43692.65567		 703.39211			42989.26356		223.37600		875.00000 
 43692.65567		 305.27265			43387.38302		69.66000		324.00000 
 43692.65567		 703.39211			42989.26356		223.37600		875.00000 
 43692.65567		 305.27265			43387.38302		69.66000		324.00000 
 43692.65567		 703.39211			42989.26356		223.37600		875.00000 
 43692.65567		 305.27265			43387.38302		69.66000		324.00000 
 43692.65567		 703.39211			42989.26356		223.37600		875.00000 
 43692.65567		 305.27265			43387.38302		69.66000		324.00000 
 43692.65567		 703.39211			42989.26356		223.37600		875.00000 
 43692.65567		 305.27265			43387.38302		69.66000		324.00000 
 43692.65567		 703.39211			42989.26356		223.37600		875.00000 
 43692.65567		 305.27265			43387.38302		69.66000		324.00000 
 43692.65567		 703.39211			42989.26356		223.37600		875.00000 
 43692.65567		 305.27265			43387.38302		69.66000		324.00000 
 43692.65567		 703.39211			42989.26356		223.37600		875.00000 
 43692.65567		 305.27265			43387.38302		69.66000		324.00000 
 43692.65567		 703.39211			42989.26356		223.37600		875.00000 
 43692.65567		 305.27265			43387.38302		69.66000		324.00000 
 43692.65567		 703.39211			42989.26356		223.37600		875.00000 
 43692.65567		 305.27265			43387.38302		69.66000		324.00000 
 43692.65567		 703.39211			42989.26356		223.37600		875.00000 
 43692.65567		 305.27265			43387.38302		69.66000		324.00000 
 43692.65567		 703.39211			42989.26356		223.37600		875.00000 
 43692.65567		 305.27265			43387.38302		69.66000		324.00000 
 43692.65567		 703.39211			42989.26356		223.37600		875.00000 
 43692.65567		 305.27265			43387.38302		69.66000		324.00000 
 43692.65567		 703.39211			42989.26356		223.37600		875.00000 
 43692.65567		 305.27265			43387.38302		69.66000		324.00000 
 43692.65567		 703.39211			42989.26356		223.37600		875.00000 
 43692.65567		 305.27265			43387.38302		69.66000		324.00000 
 43692.65567		 703.39211			42989.26356		223.37600		875.00000 
 43692.65567		 305.27265			43387.38302		69.66000		324.00000 
 43692.65567		 703.39211			42989.26356		223.37600		875.00000 
 43692.65567		 305.27265			43387.38302		69.66000		324.00000 
 43692.65567		 703.39211			42989.26356		223.37600		875.00000 
 43692.65567		 305.27265			43387.38302		69.66000		324.00000 
 43692.65567		 703.39211			42989.26356		223.37600		875.00000 
 43692.65567		 305.27265			43387.38302		69.66000		324.00000 
 43692.65567		 703.39211			42989.26356		223.37600		875.00000 
 43692.65567		 305.27265			43387.38302		69.66000		324.00000 
 43692.65567		 703.39211			42989.26356		223.37600		875.00000 
 43692.65567		 305.27265			43387.38302		69.66000		324.00000 
 43692.65567		 703.39211			42989.26356		223.37600		875.00000 
 43692.65567		 305.27265			43387.38302		69.66000		324.00000 
 43692.65567		 703.39211			42989.26356		223.37600		875.00000 
 43692.65567		 305.27265			43387.38302		69.66000		324.00000 
 43692.65567		 703.39211			42989.26356		223.37600		875.00000 
 43692.65567		 305.27265			43387.38302		69.66000		324.00000 
 43692.65567		 703.39211			42989.26356		223.37600		875.00000 
 43692.65567		 305.27265			43387.38302		69.66000		324.00000 
 43692.65567		 703.39211			42989.26356		223.37600		875.00000 
 43692.65567		 305.27265			43387.38302		69.66000		324.00000 
 43692.65567		 703.39211			42989.26356		223.37600		875.00000 
 43692.65567		 305.27265			43387.38302		69.66000		324.00000 
 43692.65567		 703.39211			42989.26356		223.37600		875.00000 
 43692.65567		 305.27265			43387.38302		69.66000		324.00000 
 43692.65567		 703.39211			42989.26356		223.37600		875.00000 
 43692.65567		 305.27265			43387.38302		69.66000		324.00000 
 43692.65567		 703.39211			42989.26356		223.37600		875.00000 
 43692.65567		 305.27265			43387.38302		69.66000		324.00000 
 43692.65567		 703.39211			42989.26356		223.37600		875.00000 
 43692.65567		 305.27265			43387.38302		69.66000		324.00000 
 43692.65567		 703.39211			42989.26356		223.37600		875.00000 
 43692.65567		 305.27265			43387.38302		69.66000		324.00000 
 43692.65567		 703.39211			42989.26356		223.37600		875.00000 
 43692.65567		 305.27265			43387.38302		69.66000		324.00000 
 43692.65567		 703.39211			42989.26356		223.37600		875.00000 
 43692.65567		 305.27265			43387.38302		69.66000		324.00000 
 43692.65567		 703.39211			42989.26356		223.37600		875.00000 
 43692.65567		 305.27265			43387.38302		69.66000		324.00000 
 43692.65567		 703.39211			42989.26356		223.37600		875.00000 
 43692.65567		 305.27265			43387.38302		69.66000		324.00000 
 43692.65567		 703.39211			42989.26356		223.37600		875.00000 
 43692.65567		 305.27265			43387.38302		69.66000		324.00000 
 43692.65567		 703.39211			42989.26356		223.37600		875.00000 
 43692.65567		 305.27265			43387.38302		69.66000		324.00000 
 43692.65567		 703.39211			42989.26356		223.37600		875.00000 
 43692.65567		 305.27265			43387.38302		69.66000		324.00000 
 43692.65567		 703.39211			42989.26356		223.37600		875.00000 
 43692.65567		 305.27265			43387.38302		69.66000		324.00000 
 43692.65567		 703.39211			42989.26356		223.37600		875.00000 
 43692.65567		 305.27265			43387.38302		69.66000		324.00000 
 43692.65567		 703.39211			42989.26356		223.37600		875.00000 
 43692.65567		 305.27265			43387.38302		69.66000		324.00000 
 43692.65567		 703.39211			42989.26356		223.37600		875.00000 
 43692.65567		 305.27265			43387.38302		69.66000		324.00000 
 43692.65567		 703.39211			42989.26356		223.37600		875.00000 
 43692.65567		 305.27265			43387.38302		69.66000		324.00000 
 43692.65567		 703.39211			42989.26356		223.37600		875.00000 
 43692.65567		 305.27265			43387.38302		69.66000		324.00000 
 43692.65567		 703.39211			42989.26356		226.31800		875.00000 
 43692.65567		 305.27265			43387.38302		69.66000		324.00000 
 43692.65567		 703.39211			42989.26356		226.31800		875.00000 
 43692.65567		 305.27265			43387.38302		69.66000		324.00000 
 43692.65567		 703.39211			42989.26356		226.31800		875.00000 
 43692.65567		 305.27265			43387.38302		69.66000		324.00000 
 43692.65567		 703.39211			42989.26356		226.31800		875.00000 
 43692.65567		 305.27265			43387.38302		69.66000		324.00000 
 43692.65567		 703.39211			42989.26356		226.31800		875.00000 
 43692.65567		 305.27265			43387.38302		69.66000		324.00000 
 43692.65567		 703.39211			42989.26356		226.31800		875.00000 
 43692.65567		 305.27265			43387.38302		69.66000		324.00000 
 43692.65567		 703.39211			42989.26356		226.31800		875.00000 
 43692.65567		 305.27265			43387.38302		69.66000		324.00000 
 43692.65567		 703.39211			42989.26356		226.31800		875.00000 
 43692.65567		 305.27265			43387.38302		69.66000		324.00000 
 43692.65567		 703.39211			42989.26356		226.31800		875.00000 
 43692.65567		 305.27265			43387.38302		69.66000		324.00000 
 43692.65567		 703.39211			42989.26356		226.31800		875.00000 
 43692.65567		 305.27265			43387.38302		69.66000		324.00000 
 43692.65567		 703.39211			42989.26356		226.31800		875.00000 
 43692.65567		 305.27265			43387.38302		69.66000		324.00000 
 43692.65567		 703.39211			42989.26356		226.31800		875.00000 
 43692.65567		 305.27265			43387.38302		69.66000		324.00000 
 43692.65567		 703.39211			42989.26356		226.31800		875.00000 
 43692.65567		 305.27265			43387.38302		69.66000		324.00000 
 43692.65567		 703.39211			42989.26356		226.31800		875.00000 
 43692.65567		 305.27265			43387.38302		69.66000		324.00000 
 43692.65567		 703.39211			42989.26356		226.31800		875.00000 
 43692.65567		 305.27265			43387.38302		69.66000		324.00000 
 43692.65567		 703.39211			42989.26356		226.31800		875.00000 
 43692.65567		 305.27265			43387.38302		69.66000		324.00000 
 43692.65567		 703.39211			42989.26356		226.31800		875.00000 
 43692.65567		 305.27265			43387.38302		69.66000		324.00000 
 43692.65567		 703.39211			42989.26356		226.31800		875.00000 
 43692.65567		 305.27265			43387.38302		69.66000		324.00000 
 43692.65567		 703.39211			42989.26356		226.31800		875.00000 
 43692.65567		 305.27265			43387.38302		69.66000		324.00000 
 43692.65567		 703.39211			42989.26356		226.31800		875.00000 
 43692.65567		 305.27265			43387.38302		69.66000		324.00000 
 43692.65567		 703.39211			42989.26356		226.31800		875.00000 
 43692.65567		 305.27265			43387.38302		69.66000		324.00000 
 43692.65567		 703.39211			42989.26356		226.31800		875.00000 
 43692.65567		 305.27265			43387.38302		69.66000		324.00000 
 43692.65567		 703.39211			42989.26356		226.31800		875.00000 
 43692.65567		 305.27265			43387.38302		69.66000		324.00000 
 43692.65567		 703.39211			42989.26356		226.31800		875.00000 
 43692.65567		 305.27265			43387.38302		69.66000		324.00000 
 43692.65567		 703.39211			42989.26356		226.31800		875.00000 
 43692.65567		 305.27265			43387.38302		69.66000		324.00000 
 43692.65567		 703.39211			42989.26356		226.31800		875.00000 
 43692.65567		 305.27265			43387.38302		69.66000		324.00000 
 43692.65567		 703.39211			42989.26356		226.31800		875.00000 
 43692.65567		 305.27265			43387.38302		69.66000		324.00000 
 43692.65567		 703.39211			42989.26356		226.31800		875.00000 
 43692.65567		 305.27265			43387.38302		69.66000		324.00000 
 43692.65567		 703.39211			42989.26356		226.31800		875.00000 
 43692.65567		 305.27265			43387.38302		69.66000		324.00000 
 43692.65567		 703.39211			42989.26356		226.31800		875.00000 
 43692.65567		 305.27265			43387.38302		69.66000		324.00000 
 43692.65567		 703.39211			42989.26356		226.31800		875.00000 
 43692.65567		 305.27265			43387.38302		69.66000		324.00000 
 43692.65567		 703.39211			42989.26356		226.31800		875.00000 
 43692.65567		 305.27265			43387.38302		69.66000		324.00000 
 43692.65567		 703.39211			42989.26356		226.31800		875.00000 
 43692.65567		 305.27265			43387.38302		69.66000		324.00000 
 43692.65567		 703.39211			42989.26356		226.31800		875.00000 
 43692.65567		 305.27265			43387.38302		69.66000		324.00000 
 43692.65567		 703.39211			42989.26356		226.31800		875.00000 
 43692.65567		 305.27265			43387.38302		69.66000		324.00000 
 43692.65567		 703.39211			42989.26356		226.31800		875.00000 
 43692.65567		 305.27265			43387.38302		69.66000		324.00000 
 43692.65567		 703.39211			42989.26356		226.31800		875.00000 
 43692.65567		 305.27265			43387.38302		69.66000		324.00000 
 43692.65567		 703.39211			42989.26356		226.31800		875.00000 
 43692.65567		 305.27265			43387.38302		69.66000		324.00000 
 43692.65567		 703.39211			42989.26356		226.31800		875.00000 
 43692.65567		 305.27265			43387.38302		69.66000		324.00000 
 43692.65567		 703.39211			42989.26356		226.31800		875.00000 
 43692.65567		 305.27265			43387.38302		69.66000		324.00000 
 43692.65567		 703.39211			42989.26356		226.31800		875.00000 
 43692.65567		 305.27265			43387.38302		69.66000		324.00000 
 43692.65567		 703.39211			42989.26356		226.31800		875.00000 
 43692.65567		 305.27265			43387.38302		69.66000		324.00000 
 43692.65567		 703.39211			42989.26356		226.31800		875.00000 
 43692.65567		 305.27265			43387.38302		69.66000		324.00000 
 43692.65567		 703.39211			42989.26356		226.31800		875.00000 
 43692.65567		 305.27265			43387.38302		69.66000		324.00000 
 43692.65567		 703.39211			42989.26356		226.31800		875.00000 
 43692.65567		 305.27265			43387.38302		69.66000		324.00000 
 43692.65567		 703.39211			42989.26356		226.31800		875.00000 
 43692.65567		 305.27265			43387.38302		69.66000		324.00000 
 43692.65567		 703.39211			42989.26356		226.31800		875.00000 
 43692.65567		 305.27265			43387.38302		69.66000		324.00000 
 43692.65567		 703.39211			42989.26356		226.31800		875.00000 
 43692.65567		 305.27265			43387.38302		69.66000		324.00000 
 43692.65567		 703.39211			42989.26356		226.31800		875.00000 
 43692.65567		 305.27265			43387.38302		69.66000		324.00000 
 43692.65567		 703.39211			42989.26356		226.31800		875.00000 
 43692.65567		 305.27265			43387.38302		69.66000		324.00000 
 43692.65567		 703.39211			42989.26356		226.31800		875.00000 
 43692.65567		 305.27265			43387.38302		69.66000		324.00000 
 43692.65567		 703.39211			42989.26356		226.31800		875.00000 
 43692.65567		 305.27265			43387.38302		69.66000		324.00000 
 43692.65567		 703.39211			42989.26356		226.31800		875.00000 
 43692.65567		 305.27265			43387.38302		69.66000		324.00000 
 43692.65567		 703.39211			42989.26356		226.31800		875.00000 
 43692.65567		 305.27265			43387.38302		69.66000		324.00000 
 43692.65567		 703.39211			42989.26356		226.31800		875.00000 
 43692.65567		 305.27265			43387.38302		69.66000		324.00000 
 43692.65567		 703.39211			42989.26356		226.31800		875.00000 
 43692.65567		 305.27265			43387.38302		69.66000		324.00000 
 43692.65567		 703.39211			42989.26356		226.31800		875.00000 
 43692.65567		 305.27265			43387.38302		69.66000		324.00000 
 43692.65567		 703.39211			42989.26356		226.31800		875.00000 
 43692.65567		 305.27265			43387.38302		69.66000		324.00000 
 43692.65567		 703.39211			42989.26356		226.31800		875.00000 
 43692.65567		 305.27265			43387.38302		69.66000		324.00000 
 43692.65567		 703.39211			42989.26356		226.31800		875.00000 
 43692.65567		 305.27265			43387.38302		69.66000		324.00000 
 43692.65567		 703.39211			42989.26356		226.31800		875.00000 
 43692.65567		 305.27265			43387.38302		69.66000		324.00000 
 43692.65567		 703.39211			42989.26356		226.31800		875.00000 
 43692.65567		 305.27265			43387.38302		69.66000		324.00000 
 43692.65567		 703.39211			42989.26356		226.31800		875.00000 
 43692.65567		 305.27265			43387.38302		69.66000		324.00000 
 43692.65567		 703.39211			42989.26356		226.31800		875.00000 
 43692.65567		 305.27265			43387.38302		69.66000		324.00000 
 43692.65567		 703.39211			42989.26356		226.55400		875.00000 
 43692.65567		 305.27265			43387.38302		69.66000		324.00000 
 43692.65567		 703.39211			42989.26356		226.55400		875.00000 
 43692.65567		 305.27265			43387.38302		69.66000		324.00000 
 43692.65567		 703.39211			42989.26356		226.55400		875.00000 
 43692.65567		 305.27265			43387.38302		69.66000		324.00000 
 43692.65567		 703.39211			42989.26356		226.55400		875.00000 
 43692.65567		 305.27265			43387.38302		69.66000		324.00000 
 43692.65567		 703.39211			42989.26356		226.55400		875.00000 
 43692.65567		 305.27265			43387.38302		69.66000		324.00000 
 43692.65567		 703.39211			42989.26356		226.55400		875.00000 
 43692.65567		 305.27265			43387.38302		69.66000		324.00000 
 43692.65567		 703.39211			42989.26356		226.55400		875.00000 
 43692.65567		 305.27265			43387.38302		69.66000		324.00000 
 43692.65567		 703.39211			42989.26356		226.55400		875.00000 
 43692.65567		 305.27265			43387.38302		69.66000		324.00000 
 43692.65567		 703.39211			42989.26356		226.55400		875.00000 
 43692.65567		 305.27265			43387.38302		69.66000		324.00000 
 43692.65567		 703.39211			42989.26356		226.55400		875.00000 
 43692.65567		 305.27265			43387.38302		69.66000		324.00000 
 43692.65567		 703.39211			42989.26356		226.55400		875.00000 
 43692.65567		 305.27265			43387.38302		69.66000		324.00000 
 43692.65567		 703.39211			42989.26356		226.55400		875.00000 
 43692.65567		 305.27265			43387.38302		69.66000		324.00000 
 43692.65567		 703.39211			42989.26356		226.55400		875.00000 
 43692.65567		 305.27265			43387.38302		69.66000		324.00000 
 43692.65567		 703.39211			42989.26356		226.55400		875.00000 
 43692.65567		 305.27265			43387.38302		69.66000		324.00000 
 43692.65567		 703.39211			42989.26356		226.55400		875.00000 
 43692.65567		 305.27265			43387.38302		69.66000		324.00000 
 43692.65567		 703.39211			42989.26356		226.55400		875.00000 
 43692.65567		 305.27265			43387.38302		69.66000		324.00000 
 43692.65567		 703.39211			42989.26356		226.55400		875.00000 
 43692.65567		 305.27265			43387.38302		69.66000		324.00000 
 43692.65567		 703.39211			42989.26356		226.55400		875.00000 
 43692.65567		 305.27265			43387.38302		69.66000		324.00000 
 43692.65567		 703.39211			42989.26356		226.55400		875.00000 
 43692.65567		 305.27265			43387.38302		69.66000		324.00000 
 43692.65567		 703.39211			42989.26356		226.55400		875.00000 
 43692.65567		 305.27265			43387.38302		69.66000		324.00000 
 43692.65567		 703.39211			42989.26356		226.55400		875.00000 
 43692.65567		 305.27265			43387.38302		69.66000		324.00000 
 43692.65567		 703.39211			42989.26356		226.55400		875.00000 
 43692.65567		 305.27265			43387.38302		69.66000		324.00000 
 43692.65567		 703.39211			42989.26356		226.55400		875.00000 
 43692.65567		 305.27265			43387.38302		69.66000		324.00000 
 43692.65567		 703.39211			42989.26356		226.55400		875.00000 
 43692.65567		 305.27265			43387.38302		69.66000		324.00000 
 43692.65567		 703.39211			42989.26356		226.55400		875.00000 
 43692.65567		 305.27265			43387.38302		69.66000		324.00000 
 43692.65567		 703.39211			42989.26356		226.55400		875.00000 
 43692.65567		 305.27265			43387.38302		69.66000		324.00000 
 43692.65567		 703.39211			42989.26356		226.55400		875.00000 
 43692.65567		 305.27265			43387.38302		69.66000		324.00000 
 43692.65567		 703.39211			42989.26356		226.55400		875.00000 
 43692.65567		 305.27265			43387.38302		69.66000		324.00000 
 43692.65567		 703.39211			42989.26356		226.55400		875.00000 
 43692.65567		 305.27265			43387.38302		69.66000		324.00000 
 43692.65567		 703.39211			42989.26356		226.55400		875.00000 
 43692.65567		 305.27265			43387.38302		69.66000		324.00000 
 43692.65567		 703.39211			42989.26356		226.55400		875.00000 
 43692.65567		 305.27265			43387.38302		69.66000		324.00000 
 43692.65567		 703.39211			42989.26356		226.55400		875.00000 
 43692.65567		 305.27265			43387.38302		69.66000		324.00000 
 43692.65567		 703.39211			42989.26356		226.55400		875.00000 
 43692.65567		 305.27265			43387.38302		69.66000		324.00000 
 43692.65567		 703.39211			42989.26356		226.55400		875.00000 
 43692.65567		 305.27265			43387.38302		69.66000		324.00000 
 43692.65567		 703.39211			42989.26356		226.55400		875.00000 
 43692.65567		 305.27265			43387.38302		69.66000		324.00000 
 43692.65567		 703.39211			42989.26356		226.55400		875.00000 
 43692.65567		 305.27265			43387.38302		69.66000		324.00000 
 43692.65567		 703.39211			42989.26356		226.55400		875.00000 
 43692.65567		 305.27265			43387.38302		69.66000		324.00000 
 43692.65567		 703.39211			42989.26356		226.55400		875.00000 
 43692.65567		 305.27265			43387.38302		69.66000		324.00000 
 43692.65567		 703.39211			42989.26356		226.55400		875.00000 
 43692.65567		 305.27265			43387.38302		69.66000		324.00000 
 43692.65567		 703.39211			42989.26356		226.55400		875.00000 
 43692.65567		 305.27265			43387.38302		69.66000		324.00000 
 43692.65567		 703.39211			42989.26356		226.55400		875.00000 
 43692.65567		 305.27265			43387.38302		69.66000		324.00000 
 43692.65567		 703.39211			42989.26356		226.55400		875.00000 
 43692.65567		 305.27265			43387.38302		69.66000		324.00000 
 43692.65567		 703.39211			42989.26356		226.55400		875.00000 
 43692.65567		 305.27265			43387.38302		69.66000		324.00000 
 43692.65567		 703.39211			42989.26356		226.55400		875.00000 
 43692.65567		 305.27265			43387.38302		69.66000		324.00000 
 43692.65567		 703.39211			42989.26356		226.55400		875.00000 
 43692.65567		 305.27265			43387.38302		69.66000		324.00000 
 43692.65567		 703.39211			42989.26356		226.55400		875.00000 
 43692.65567		 305.27265			43387.38302		69.66000		324.00000 
 43692.65567		 703.39211			42989.26356		226.55400		875.00000 
 43692.65567		 305.27265			43387.38302		69.66000		324.00000 
 43692.65567		 703.39211			42989.26356		226.55400		875.00000 
 43692.65567		 305.27265			43387.38302		69.66000		324.00000 
 43692.65567		 703.39211			42989.26356		226.55400		875.00000 
 43692.65567		 305.27265			43387.38302		69.66000		324.00000 
 43692.65567		 703.39211			42989.26356		226.55400		875.00000 
 43692.65567		 305.27265			43387.38302		69.66000		324.00000 
 43692.65567		 703.39211			42989.26356		226.55400		875.00000 
 43692.65567		 305.27265			43387.38302		69.66000		324.00000 
 43692.65567		 703.39211			42989.26356		226.55400		875.00000 
 43692.65567		 305.27265			43387.38302		69.66000		324.00000 
 43692.65567		 703.39211			42989.26356		226.55400		875.00000 
 43692.65567		 305.27265			43387.38302		69.66000		324.00000 
 43692.65567		 703.39211			42989.26356		226.55400		875.00000 
 43692.65567		 305.27265			43387.38302		69.66000		324.00000 
 43692.65567		 703.39211			42989.26356		226.55400		875.00000 
 43692.65567		 305.27265			43387.38302		69.66000		324.00000 
 43692.65567		 703.39211			42989.26356		226.55400		875.00000 
 43692.65567		 305.27265			43387.38302		69.66000		324.00000 
 43692.65567		 703.39211			42989.26356		226.55400		875.00000 
 43692.65567		 305.27265			43387.38302		69.66000		324.00000 
 43692.65567		 703.39211			42989.26356		226.55400		875.00000 
 43692.65567		 305.27265			43387.38302		69.66000		324.00000 
 43692.65567		 703.39211			42989.26356		226.55400		875.00000 
 43692.65567		 305.27265			43387.38302		69.66000		324.00000 
 43692.65567		 703.39211			42989.26356		226.55400		875.00000 
 43692.65567		 305.27265			43387.38302		69.66000		324.00000 
 43692.65567		 703.39211			42989.26356		226.55400		875.00000 
 43692.65567		 305.27265			43387.38302		69.66000		324.00000 
 43692.65567		 703.39211			42989.26356		226.55400		875.00000 
 43692.65567		 305.27265			43387.38302		69.66000		324.00000 
 43692.65567		 703.39211			42989.26356		226.55400		875.00000 
 43692.65567		 305.27265			43387.38302		69.66000		324.00000 
 43692.65567		 703.39211			42989.26356		226.55400		875.00000 
 43692.65567		 305.27265			43387.38302		69.66000		324.00000 
 43692.65567		 703.39211			42989.26356		226.55400		875.00000 
 43692.65567		 305.27265			43387.38302		69.66000		324.00000 
 43692.65567		 703.39211			42989.26356		226.78200		875.00000 
 43692.65567		 305.27265			43387.38302		69.66000		324.00000 
 43692.65567		 703.39211			42989.26356		226.78200		875.00000 
 43692.65567		 305.27265			43387.38302		69.66000		324.00000 
 43692.65567		 703.39211			42989.26356		226.78200		875.00000 
 43692.65567		 305.27265			43387.38302		69.66000		324.00000 
 43692.65567		 703.39211			42989.26356		226.78200		875.00000 
 43692.65567		 305.27265			43387.38302		69.66000		324.00000 
 43692.65567		 703.39211			42989.26356		226.78200		875.00000 
 43692.65567		 305.27265			43387.38302		69.66000		324.00000 
 43692.65567		 703.39211			42989.26356		226.78200		875.00000 
 43692.65567		 305.27265			43387.38302		69.66000		324.00000 
 43692.65567		 703.39211			42989.26356		226.78200		875.00000 
 43692.65567		 305.27265			43387.38302		69.66000		324.00000 
 43692.65567		 703.39211			42989.26356		226.78200		875.00000 
 43692.65567		 305.27265			43387.38302		69.66000		324.00000 
 43692.65567		 703.39211			42989.26356		226.78200		875.00000 
 43692.65567		 305.27265			43387.38302		69.66000		324.00000 
 43692.65567		 703.39211			42989.26356		226.78200		875.00000 
 43692.65567		 305.27265			43387.38302		69.66000		324.00000 
 43692.65567		 703.39211			42989.26356		226.78200		875.00000 
 43692.65567		 305.27265			43387.38302		69.66000		324.00000 
 43692.65567		 703.39211			42989.26356		226.78200		875.00000 
 43692.65567		 305.27265			43387.38302		69.66000		324.00000 
 43692.65567		 703.39211			42989.26356		226.78200		875.00000 
 43692.65567		 305.27265			43387.38302		69.66000		324.00000 
 43692.65567		 703.39211			42989.26356		226.78200		875.00000 
 43692.65567		 305.27265			43387.38302		69.66000		324.00000 
 43692.65567		 703.39211			42989.26356		226.78200		875.00000 
 43692.65567		 305.27265			43387.38302		69.66000		324.00000 
 43692.65567		 703.39211			42989.26356		226.78200		875.00000 
 43692.65567		 305.27265			43387.38302		69.64400		324.00000 
 43692.65567		 703.39211			42989.26356		226.78200		875.00000 
 43692.65567		 305.27265			43387.38302		69.64400		324.00000 
 43692.65567		 703.39211			42989.26356		226.78200		875.00000 
 43692.65567		 305.27265			43387.38302		69.64400		324.00000 
 43692.65567		 703.39211			42989.26356		226.78200		875.00000 
 43692.65567		 305.27265			43387.38302		69.64400		324.00000 
 43692.65567		 703.39211			42989.26356		226.78200		875.00000 
 43692.65567		 305.27265			43387.38302		69.64400		324.00000 
 43692.65567		 703.39211			42989.26356		226.78200		875.00000 
 43692.65567		 305.27265			43387.38302		69.64400		324.00000 
 43692.65567		 703.39211			42989.26356		226.78200		875.00000 
 43692.65567		 305.27265			43387.38302		69.64400		324.00000 
 43692.65567		 703.39211			42989.26356		226.78200		875.00000 
 43692.65567		 305.27265			43387.38302		69.64400		324.00000 
 43692.65567		 703.39211			42989.26356		226.78200		875.00000 
 43692.65567		 305.27265			43387.38302		69.64400		324.00000 
 43692.65567		 703.39211			42989.26356		226.78200		875.00000 
 43692.65567		 305.27265			43387.38302		69.64400		324.00000 
 43692.65567		 703.39211			42989.26356		226.78200		875.00000 
 43692.65567		 305.27265			43387.38302		69.64400		324.00000 
 43692.65567		 703.39211			42989.26356		226.78200		875.00000 
 43692.65567		 305.27265			43387.38302		69.64400		324.00000 
 43692.65567		 703.39211			42989.26356		226.78200		875.00000 
 43692.65567		 305.27265			43387.38302		69.64400		324.00000 
 43692.65567		 703.39211			42989.26356		226.78200		875.00000 
 43692.65567		 305.27265			43387.38302		69.64400		324.00000 
 43692.65567		 703.39211			42989.26356		226.78200		875.00000 
 43692.65567		 305.27265			43387.38302		69.64400		324.00000 
 43692.65567		 703.39211			42989.26356		226.78200		875.00000 
 43692.65567		 305.27265			43387.38302		69.64400		324.00000 
 43692.65567		 703.39211			42989.26356		226.78200		875.00000 
 43692.65567		 305.27265			43387.38302		69.64400		324.00000 
 43692.65567		 703.39211			42989.26356		226.78200		875.00000 
 43692.65567		 305.27265			43387.38302		69.64400		324.00000 
 43692.65567		 703.39211			42989.26356		226.78200		875.00000 
 43692.65567		 305.27265			43387.38302		69.64400		324.00000 
 43692.65567		 703.39211			42989.26356		226.78200		875.00000 
 43692.65567		 305.27265			43387.38302		69.64400		324.00000 
 43692.65567		 703.39211			42989.26356		226.78200		875.00000 
 43692.65567		 305.27265			43387.38302		69.64400		324.00000 
 43692.65567		 703.39211			42989.26356		226.78200		875.00000 
 43692.65567		 305.27265			43387.38302		69.64400		324.00000 
 43692.65567		 703.39211			42989.26356		226.78200		875.00000 
 43692.65567		 305.27265			43387.38302		69.64400		324.00000 
 43692.65567		 703.39211			42989.26356		226.78200		875.00000 
 43692.65567		 305.27265			43387.38302		69.64400		324.00000 
 43692.65567		 703.39211			42989.26356		226.78200		875.00000 
 43692.65567		 305.27265			43387.38302		69.64400		324.00000 
 43692.65567		 703.39211			42989.26356		226.78200		875.00000 
 43692.65567		 305.27265			43387.38302		69.64400		324.00000 
 43692.65567		 703.39211			42989.26356		226.78200		875.00000 
 43692.65567		 305.27265			43387.38302		69.64400		324.00000 
 43692.65567		 703.39211			42989.26356		226.78200		875.00000 
 43692.65567		 305.27265			43387.38302		69.64400		324.00000 
 43692.65567		 703.39211			42989.26356		226.78200		875.00000 
 43692.65567		 305.27265			43387.38302		69.64400		324.00000 
 43692.65567		 703.39211			42989.26356		226.78200		875.00000 
 43692.65567		 305.27265			43387.38302		69.64400		324.00000 
 43692.65567		 703.39211			42989.26356		226.78200		875.00000 
 43692.65567		 305.27265			43387.38302		69.64400		324.00000 
 43692.65567		 703.39211			42989.26356		226.78200		875.00000 
 43692.65567		 305.27265			43387.38302		69.64400		324.00000 
 43692.65567		 703.39211			42989.26356		226.78200		875.00000 
 43692.65567		 305.27265			43387.38302		69.64400		324.00000 
 43692.65567		 703.39211			42989.26356		226.78200		875.00000 
 43692.65567		 305.27265			43387.38302		69.64400		324.00000 
 43692.65567		 703.39211			42989.26356		226.78200		875.00000 
 43692.65567		 305.27265			43387.38302		69.64400		324.00000 
 43692.65567		 703.39211			42989.26356		226.78200		875.00000 
 43692.65567		 305.27265			43387.38302		69.64400		324.00000 
 43692.65567		 703.39211			42989.26356		226.78200		875.00000 
 43692.65567		 305.27265			43387.38302		69.64400		324.00000 
 43692.65567		 703.39211			42989.26356		226.78200		875.00000 
 43692.65567		 305.27265			43387.38302		69.64400		324.00000 
 43692.65567		 703.39211			42989.26356		226.78200		875.00000 
 43692.65567		 305.27265			43387.38302		69.64400		324.00000 
 43692.65567		 703.39211			42989.26356		226.78200		875.00000 
 43692.65567		 305.27265			43387.38302		69.64400		324.00000 
 43692.65567		 703.39211			42989.26356		226.78200		875.00000 
 43692.65567		 305.27265			43387.38302		69.64400		324.00000 
 43692.65567		 703.39211			42989.26356		226.78200		875.00000 
 43692.65567		 305.27265			43387.38302		69.64400		324.00000 
 43692.65567		 703.39211			42989.26356		226.78200		875.00000 
 43692.65567		 305.27265			43387.38302		69.64400		324.00000 
 43692.65567		 703.39211			42989.26356		226.78200		875.00000 
 43692.65567		 305.27265			43387.38302		69.64400		324.00000 
 43692.65567		 703.39211			42989.26356		226.78200		875.00000 
 43692.65567		 305.27265			43387.38302		69.64400		324.00000 
 43692.65567		 703.39211			42989.26356		226.78200		875.00000 
 43692.65567		 305.27265			43387.38302		69.64400		324.00000 
 43692.65567		 703.39211			42989.26356		226.18400		875.00000 
 43692.65567		 305.27265			43387.38302		69.64400		324.00000 
 43692.65567		 703.39211			42989.26356		226.18400		875.00000 
 43692.65567		 305.27265			43387.38302		69.64400		324.00000 
 43692.65567		 703.39211			42989.26356		226.18400		875.00000 
 43692.65567		 305.27265			43387.38302		69.64400		324.00000 
 43692.65567		 703.39211			42989.26356		226.18400		875.00000 
 43692.65567		 305.27265			43387.38302		69.64400		324.00000 
 43692.65567		 703.39211			42989.26356		226.18400		875.00000 
 43692.65567		 305.27265			43387.38302		69.64400		324.00000 
 43692.65567		 703.39211			42989.26356		226.18400		875.00000 
 43692.65567		 305.27265			43387.38302		69.64400		324.00000 
 43692.65567		 703.39211			42989.26356		226.18400		875.00000 
 43692.65567		 305.27265			43387.38302		69.64400		324.00000 
 43692.65567		 703.39211			42989.26356		226.18400		875.00000 
 43692.65567		 305.27265			43387.38302		69.64400		324.00000 
 43692.65567		 703.39211			42989.26356		226.18400		875.00000 
 43692.65567		 305.27265			43387.38302		69.64400		324.00000 
 43692.65567		 703.39211			42989.26356		226.18400		875.00000 
 43692.65567		 305.27265			43387.38302		69.64400		324.00000 
 43692.65567		 703.39211			42989.26356		226.18400		875.00000 
 43692.65567		 305.27265			43387.38302		69.64400		324.00000 
 43692.65567		 703.39211			42989.26356		226.18400		875.00000 
 43692.65567		 305.27265			43387.38302		69.64400		324.00000 
 43692.65567		 703.39211			42989.26356		226.18400		875.00000 
 43692.65567		 305.27265			43387.38302		69.64400		324.00000 
 43692.65567		 703.39211			42989.26356		226.18400		875.00000 
 43692.65567		 305.27265			43387.38302		69.64400		324.00000 
 43692.65567		 703.39211			42989.26356		226.18400		875.00000 
 43692.65567		 305.27265			43387.38302		69.64400		324.00000 
 43692.65567		 703.39211			42989.26356		226.18400		875.00000 
 43692.65567		 305.27265			43387.38302		69.64400		324.00000 
 43692.65567		 703.39211			42989.26356		226.18400		875.00000 
 43692.65567		 305.27265			43387.38302		69.64400		324.00000 
 43692.65567		 703.39211			42989.26356		226.18400		875.00000 
 43692.65567		 305.27265			43387.38302		69.64400		324.00000 
 43692.65567		 703.39211			42989.26356		226.18400		875.00000 
 43692.65567		 305.27265			43387.38302		69.64400		324.00000 
 43692.65567		 703.39211			42989.26356		226.18400		875.00000 
 43692.65567		 305.27265			43387.38302		69.64400		324.00000 
 43692.65567		 703.39211			42989.26356		226.18400		875.00000 
 43692.65567		 305.27265			43387.38302		69.64400		324.00000 
 43692.65567		 703.39211			42989.26356		226.18400		875.00000 
 43692.65567		 305.27265			43387.38302		69.64400		324.00000 
 43692.65567		 703.39211			42989.26356		226.18400		875.00000 
 43692.65567		 305.27265			43387.38302		69.64400		324.00000 
 43692.65567		 703.39211			42989.26356		226.18400		875.00000 
 43692.65567		 305.27265			43387.38302		69.64400		324.00000 
 43692.65567		 703.39211			42989.26356		226.18400		875.00000 
 43692.65567		 305.27265			43387.38302		69.64400		324.00000 
 43692.65567		 703.39211			42989.26356		226.18400		875.00000 
 43692.65567		 305.27265			43387.38302		69.64400		324.00000 
 43692.65567		 703.39211			42989.26356		226.18400		875.00000 
 43692.65567		 305.27265			43387.38302		69.64400		324.00000 
 43692.65567		 703.39211			42989.26356		226.18400		875.00000 
 43692.65567		 305.27265			43387.38302		69.64400		324.00000 
 43692.65567		 703.39211			42989.26356		226.18400		875.00000 
 43692.65567		 305.27265			43387.38302		69.64400		324.00000 
 43692.65567		 703.39211			42989.26356		226.18400		875.00000 
 43692.65567		 305.27265			43387.38302		69.64400		324.00000 
 43692.65567		 703.39211			42989.26356		226.18400		875.00000 
 43692.65567		 305.27265			43387.38302		69.64400		324.00000 
 43692.65567		 703.39211			42989.26356		226.18400		875.00000 
 43692.65567		 305.27265			43387.38302		69.64400		324.00000 
 43692.65567		 703.39211			42989.26356		226.18400		875.00000 
 43692.65567		 305.27265			43387.38302		69.64400		324.00000 
 43692.65567		 703.39211			42989.26356		226.18400		875.00000 
 43692.65567		 305.27265			43387.38302		69.64400		324.00000 
 43692.65567		 703.39211			42989.26356		226.18400		875.00000 
 43692.65567		 305.27265			43387.38302		69.64400		324.00000 
 43692.65567		 703.39211			42989.26356		226.18400		875.00000 
 43692.65567		 305.27265			43387.38302		69.64400		324.00000 
 43692.65567		 703.39211			42989.26356		226.18400		875.00000 
 43692.65567		 305.27265			43387.38302		69.64400		324.00000 
 43692.65567		 703.39211			42989.26356		226.18400		875.00000 
 43692.65567		 305.27265			43387.38302		69.64400		324.00000 
 43692.65567		 703.39211			42989.26356		226.18400		875.00000 
 43692.65567		 305.27265			43387.38302		69.64400		324.00000 
 43692.65567		 703.39211			42989.26356		226.18400		875.00000 
 43692.65567		 305.27265			43387.38302		69.64400		324.00000 
 43692.65567		 703.39211			42989.26356		226.18400		875.00000 
 43692.65567		 305.27265			43387.38302		69.64400		324.00000 
 43692.65567		 703.39211			42989.26356		226.18400		875.00000 
 43692.65567		 305.27265			43387.38302		69.64400		324.00000 
 43692.65567		 703.39211			42989.26356		226.18400		875.00000 
 43692.65567		 305.27265			43387.38302		69.64400		324.00000 
 43692.65567		 703.39211			42989.26356		226.18400		875.00000 
 43692.65567		 305.27265			43387.38302		69.64400		324.00000 
 43692.65567		 703.39211			42989.26356		226.18400		875.00000 
 43692.65567		 305.27265			43387.38302		69.64400		324.00000 
 43692.65567		 703.39211			42989.26356		226.18400		875.00000 
 43692.65567		 305.27265			43387.38302		69.64400		324.00000 
 43692.65567		 703.39211			42989.26356		226.18400		875.00000 
 43692.65567		 305.27265			43387.38302		69.64400		324.00000 
 43692.65567		 703.39211			42989.26356		226.18400		875.00000 
 43692.65567		 305.27265			43387.38302		69.64400		324.00000 
 43692.65567		 703.39211			42989.26356		226.18400		875.00000 
 43692.65567		 305.27265			43387.38302		69.64400		324.00000 
 43692.65567		 703.39211			42989.26356		226.18400		875.00000 
 43692.65567		 305.27265			43387.38302		69.64400		324.00000 
 43692.65567		 703.39211			42989.26356		226.18400		875.00000 
 43692.65567		 305.27265			43387.38302		69.64400		324.00000 
 43692.65567		 703.39211			42989.26356		226.18400		875.00000 
 43692.65567		 305.27265			43387.38302		69.64400		324.00000 
 43692.65567		 703.39211			42989.26356		226.18400		875.00000 
 43692.65567		 305.27265			43387.38302		69.64400		324.00000 
 43692.65567		 703.39211			42989.26356		226.18400		875.00000 
 43692.65567		 305.27265			43387.38302		69.64400		324.00000 
 43692.65567		 703.39211			42989.26356		226.18400		875.00000 
 43692.65567		 305.27265			43387.38302		69.64400		324.00000 
 43692.65567		 703.39211			42989.26356		226.18400		875.00000 
 43692.65567		 305.27265			43387.38302		69.64400		324.00000 
 43692.65567		 703.39211			42989.26356		226.18400		875.00000 
 43692.65567		 305.27265			43387.38302		69.64400		324.00000 
 43692.65567		 703.39211			42989.26356		226.18400		875.00000 
 43692.65567		 305.27265			43387.38302		69.64400		324.00000 
 43692.65567		 703.39211			42989.26356		226.18400		875.00000 
 43692.65567		 305.27265			43387.38302		69.64400		324.00000 
 43692.65567		 703.39211			42989.26356		226.18400		875.00000 
 43692.65567		 305.27265			43387.38302		69.64400		324.00000 
 43692.65567		 703.39211			42989.26356		226.18400		875.00000 
 43692.65567		 305.27265			43387.38302		69.64400		324.00000 
 43692.65567		 703.39211			42989.26356		226.18400		875.00000 
 43692.65567		 305.27265			43387.38302		69.64400		324.00000 
 43692.65567		 703.39211			42989.26356		226.18400		875.00000 
 43692.65567		 305.27265			43387.38302		69.64400		324.00000 
 43692.65567		 703.39211			42989.26356		226.18400		875.00000 
 43692.65567		 305.27265			43387.38302		69.64400		324.00000 
 43692.65567		 703.39211			42989.26356		225.58400		875.00000 
 43692.65567		 305.27265			43387.38302		69.64400		324.00000 
 43692.65567		 703.39211			42989.26356		225.58400		875.00000 
 43692.65567		 305.27265			43387.38302		69.64400		324.00000 
 43692.65567		 703.39211			42989.26356		225.58400		875.00000 
 43692.65567		 305.27265			43387.38302		69.64400		324.00000 
 43692.65567		 703.39211			42989.26356		225.58400		875.00000 
 43692.65567		 305.27265			43387.38302		69.64400		324.00000 
 43692.65567		 703.39211			42989.26356		225.58400		875.00000 
 43692.65567		 305.27265			43387.38302		69.64400		324.00000 
 43692.65567		 703.39211			42989.26356		225.58400		875.00000 
 43692.65567		 305.27265			43387.38302		69.64400		324.00000 
 43692.65567		 703.39211			42989.26356		225.58400		875.00000 
 43692.65567		 305.27265			43387.38302		69.64400		324.00000 
 43692.65567		 703.39211			42989.26356		225.58400		875.00000 
 43692.65567		 305.27265			43387.38302		69.64400		324.00000 
 43692.65567		 703.39211			42989.26356		225.58400		875.00000 
 43692.65567		 305.27265			43387.38302		69.64400		324.00000 
 43692.65567		 703.39211			42989.26356		225.58400		875.00000 
 43692.65567		 305.27265			43387.38302		69.64400		324.00000 
 43692.65567		 703.39211			42989.26356		225.58400		875.00000 
 43692.65567		 305.27265			43387.38302		69.64400		324.00000 
 43692.65567		 703.39211			42989.26356		225.58400		875.00000 
 43692.65567		 305.27265			43387.38302		69.64400		324.00000 
 43692.65567		 703.39211			42989.26356		225.58400		875.00000 
 43692.65567		 305.27265			43387.38302		69.64400		324.00000 
 43692.65567		 703.39211			42989.26356		225.58400		875.00000 
 43692.65567		 305.27265			43387.38302		69.64400		324.00000 
 43692.65567		 703.39211			42989.26356		225.58400		875.00000 
 43692.65567		 305.27265			43387.38302		69.64400		324.00000 
 43692.65567		 703.39211			42989.26356		225.58400		875.00000 
 43692.65567		 305.27265			43387.38302		69.64400		324.00000 
 43692.65567		 703.39211			42989.26356		225.58400		875.00000 
 43692.65567		 305.27265			43387.38302		69.64400		324.00000 
 43692.65567		 703.39211			42989.26356		225.58400		875.00000 
 43692.65567		 305.27265			43387.38302		69.64400		324.00000 
 43692.65567		 703.39211			42989.26356		225.58400		875.00000 
 43692.65567		 305.27265			43387.38302		69.64400		324.00000 
 43692.65567		 703.39211			42989.26356		225.58400		875.00000 
 43692.65567		 305.27265			43387.38302		69.64400		324.00000 
 43692.65567		 703.39211			42989.26356		225.58400		875.00000 
 43692.65567		 305.27265			43387.38302		69.64400		324.00000 
 43692.65567		 703.39211			42989.26356		225.58400		875.00000 
 43692.65567		 305.27265			43387.38302		69.64400		324.00000 
 43692.65567		 703.39211			42989.26356		225.58400		875.00000 
 43692.65567		 305.27265			43387.38302		69.64400		324.00000 
 43692.65567		 703.39211			42989.26356		225.58400		875.00000 
 43692.65567		 305.27265			43387.38302		69.64400		324.00000 
 43692.65567		 703.39211			42989.26356		225.58400		875.00000 
 43692.65567		 305.27265			43387.38302		69.64400		324.00000 
 43692.65567		 703.39211			42989.26356		225.58400		875.00000 
 43692.65567		 305.27265			43387.38302		69.64400		324.00000 
 43692.65567		 703.39211			42989.26356		225.58400		875.00000 
 43692.65567		 305.27265			43387.38302		69.64400		324.00000 
 43692.65567		 703.39211			42989.26356		225.58400		875.00000 
 43692.65567		 305.27265			43387.38302		69.64400		324.00000 
 43692.65567		 703.39211			42989.26356		225.58400		875.00000 
 43692.65567		 305.27265			43387.38302		69.64400		324.00000 
 43692.65567		 703.39211			42989.26356		225.58400		875.00000 
 43692.65567		 305.27265			43387.38302		69.64400		324.00000 
 43692.65567		 703.39211			42989.26356		225.58400		875.00000 
 43692.65567		 305.27265			43387.38302		69.64400		324.00000 
 43692.65567		 703.39211			42989.26356		225.58400		875.00000 
 43692.65567		 305.27265			43387.38302		69.64400		324.00000 
 43692.65567		 703.39211			42989.26356		225.58400		875.00000 
 43692.65567		 305.27265			43387.38302		69.64400		324.00000 
 43692.65567		 703.39211			42989.26356		225.58400		875.00000 
 43692.65567		 305.27265			43387.38302		69.64400		324.00000 
 43692.65567		 703.39211			42989.26356		225.58400		875.00000 
 43692.65567		 305.27265			43387.38302		69.64400		324.00000 
 43692.65567		 703.39211			42989.26356		225.58400		875.00000 
 43692.65567		 305.27265			43387.38302		69.64400		324.00000 
 43692.65567		 703.39211			42989.26356		225.58400		875.00000 
 43692.65567		 305.27265			43387.38302		69.64400		324.00000 
 43692.65567		 703.39211			42989.26356		225.58400		875.00000 
 43692.65567		 305.27265			43387.38302		69.64400		324.00000 
 43692.65567		 703.39211			42989.26356		225.58400		875.00000 
 43692.65567		 305.27265			43387.38302		69.64400		324.00000 
 43692.65567		 703.39211			42989.26356		225.58400		875.00000 
 43692.65567		 305.27265			43387.38302		69.64400		324.00000 
 43692.65567		 703.39211			42989.26356		225.58400		875.00000 
 43692.65567		 305.27265			43387.38302		69.64400		324.00000 
 43692.65567		 703.39211			42989.26356		225.58400		875.00000 
 43692.65567		 305.27265			43387.38302		69.64400		324.00000 
 43692.65567		 703.39211			42989.26356		225.58400		875.00000 
 43692.65567		 305.27265			43387.38302		69.64400		324.00000 
 43692.65567		 703.39211			42989.26356		225.58400		875.00000 
 43692.65567		 305.27265			43387.38302		69.64400		324.00000 
 43692.65567		 703.39211			42989.26356		225.58400		875.00000 
 43692.65567		 305.27265			43387.38302		69.64400		324.00000 
 43692.65567		 703.39211			42989.26356		225.58400		875.00000 
 43692.65567		 305.27265			43387.38302		69.64400		324.00000 
 43692.65567		 703.39211			42989.26356		225.58400		875.00000 
 43692.65567		 305.27265			43387.38302		69.64400		324.00000 
 43692.65567		 703.39211			42989.26356		225.58400		875.00000 
 43692.65567		 305.27265			43387.38302		69.64400		324.00000 
 43692.65567		 703.39211			42989.26356		225.58400		875.00000 
 43692.65567		 305.27265			43387.38302		69.64400		324.00000 
 43692.65567		 703.39211			42989.26356		225.58400		875.00000 
 43692.65567		 305.27265			43387.38302		69.64400		324.00000 
 43692.65567		 703.39211			42989.26356		225.58400		875.00000 
 43692.65567		 305.27265			43387.38302		69.64400		324.00000 
 43692.65567		 703.39211			42989.26356		225.58400		875.00000 
 43692.65567		 305.27265			43387.38302		69.64400		324.00000 
 43692.65567		 703.39211			42989.26356		225.58400		875.00000 
 43692.65567		 305.27265			43387.38302		69.64400		324.00000 
 43692.65567		 703.39211			42989.26356		225.58400		875.00000 
 43692.65567		 305.27265			43387.38302		69.64400		324.00000 
 43692.65567		 703.39211			42989.26356		225.58400		875.00000 
 43692.65567		 305.27265			43387.38302		69.64400		324.00000 
 43692.65567		 703.39211			42989.26356		225.58400		875.00000 
 43692.65567		 305.27265			43387.38302		69.64400		324.00000 
 43692.65567		 703.39211			42989.26356		225.58400		875.00000 
 43692.65567		 305.27265			43387.38302		69.64400		324.00000 
 43692.65567		 703.39211			42989.26356		225.58400		875.00000 
 43692.65567		 305.27265			43387.38302		69.64400		324.00000 
 43692.65567		 703.39211			42989.26356		225.58400		875.00000 
 43692.65567		 305.27265			43387.38302		69.64400		324.00000 
 43692.65567		 648.01818			43044.63749		225.58400		875.00000 
 43692.65567		 305.27265			43387.38302		69.64400		324.00000 
 43692.65567		 592.64425			43100.01142		225.58400		875.00000 
 43692.65567		 305.27265			43387.38302		69.64400		324.00000 
 43692.65567		 537.27032			43155.38535		225.58400		875.00000 
 43692.65567		 305.27265			43387.38302		69.64400		324.00000 
 43692.65567		 537.27032			43155.38535		225.58400		875.00000 
 43692.65567		 305.27265			43387.38302		69.64400		324.00000 
 43692.65567		 537.27032			43155.38535		225.58400		875.00000 
 43692.65567		 305.27265			43387.38302		69.64400		324.00000 
 43692.65567		 537.27032			43155.38535		218.33800		875.00000 
 43692.65567		 305.27265			43387.38302		69.64400		324.00000 
 43692.65567		 537.27032			43155.38535		218.33800		875.00000 
 43692.65567		 305.27265			43387.38302		69.64400		324.00000 
 43692.65567		 537.27032			43155.38535		218.33800		875.00000 
 43692.65567		 305.27265			43387.38302		69.64400		324.00000 
 43692.65567		 537.27032			43155.38535		218.33800		875.00000 
 43692.65567		 305.27265			43387.38302		69.64400		324.00000 
 43692.65567		 537.27032			43155.38535		218.33800		875.00000 
 43692.65567		 305.27265			43387.38302		69.64400		324.00000 
 43692.65567		 537.27032			43155.38535		218.33800		875.00000 
 43692.65567		 305.27265			43387.38302		69.64400		324.00000 
 43692.65567		 537.27032			43155.38535		218.33800		875.00000 
 43692.65567		 305.27265			43387.38302		69.64400		324.00000 
 43692.65567		 537.27032			43155.38535		218.33800		875.00000 
 43692.65567		 305.27265			43387.38302		69.64400		324.00000 
 43692.65567		 537.27032			43155.38535		218.33800		875.00000 
 43692.65567		 305.27265			43387.38302		69.64400		324.00000 
 43692.65567		 537.27032			43155.38535		218.33800		875.00000 
 43692.65567		 305.27265			43387.38302		69.64400		324.00000 
 43692.65567		 537.27032			43155.38535		218.33800		875.00000 
 43692.65567		 305.27265			43387.38302		69.64400		324.00000 
 43692.65567		 537.27032			43155.38535		218.33800		875.00000 
 43692.65567		 305.27265			43387.38302		69.64400		324.00000 
 43692.65567		 537.27032			43155.38535		218.33800		875.00000 
 43692.65567		 305.27265			43387.38302		69.64400		324.00000 
 43692.65567		 537.27032			43155.38535		218.33800		875.00000 
 43692.65567		 305.27265			43387.38302		69.64400		324.00000 
 43692.65567		 537.27032			43155.38535		218.33800		875.00000 
 43692.65567		 305.27265			43387.38302		69.64400		324.00000 
 43692.65567		 537.27032			43155.38535		218.33800		875.00000 
 43692.65567		 305.27265			43387.38302		69.64400		324.00000 
 43692.65567		 537.27032			43155.38535		218.33800		875.00000 
 43692.65567		 305.27265			43387.38302		69.64400		324.00000 
 43692.65567		 537.27032			43155.38535		218.33800		875.00000 
 43692.65567		 305.27265			43387.38302		69.64400		324.00000 
 43692.65567		 525.81365			43166.84203		218.33800		875.00000 
 43692.65567		 305.27265			43387.38302		69.64400		324.00000 
 43692.65567		 525.81365			43166.84203		218.33800		875.00000 
 43692.65567		 261.35540			43431.30027		69.64400		324.00000 
 43692.65567		 261.35540			43431.30027		218.33800		875.00000 
 43692.65567		 261.35540			43431.30027		69.64400		324.00000 
