Memory Total (MiB) 	 Memory Used (MiB) 	    Memory Free (MiB) 	 Power Drawed (W) 	 Clocks (Mhz) 	 
 43692.65567		 261.35540			43431.30027		203.02000		875.00000 
 43692.65567		 261.35540			43431.30027		70.12600		324.00000 
 43692.65567		 261.35540			43431.30027		203.02000		875.00000 
 43692.65567		 261.35540			43431.30027		70.12600		324.00000 
 43692.65567		 261.35540			43431.30027		203.02000		875.00000 
 43692.65567		 261.35540			43431.30027		70.12600		324.00000 
 43692.65567		 261.35540			43431.30027		203.02000		875.00000 
 43692.65567		 261.35540			43431.30027		70.12600		324.00000 
 43692.65567		 261.35540			43431.30027		203.02000		875.00000 
 43692.65567		 261.35540			43431.30027		70.12600		324.00000 
 43692.65567		 261.35540			43431.30027		203.02000		875.00000 
 43692.65567		 261.35540			43431.30027		70.12600		324.00000 
 43692.65567		 261.35540			43431.30027		203.02000		875.00000 
 43692.65567		 261.35540			43431.30027		70.12600		324.00000 
 43692.65567		 261.35540			43431.30027		203.02000		875.00000 
 43692.65567		 261.35540			43431.30027		70.12600		324.00000 
 43692.65567		 261.35540			43431.30027		203.02000		875.00000 
 43692.65567		 261.35540			43431.30027		70.12600		324.00000 
 43692.65567		 261.35540			43431.30027		203.02000		875.00000 
 43692.65567		 261.35540			43431.30027		70.12600		324.00000 
 43692.65567		 261.35540			43431.30027		203.02000		875.00000 
 43692.65567		 261.35540			43431.30027		70.12600		324.00000 
 43692.65567		 261.35540			43431.30027		203.02000		875.00000 
 43692.65567		 261.35540			43431.30027		70.12600		324.00000 
 43692.65567		 261.35540			43431.30027		203.02000		875.00000 
 43692.65567		 261.35540			43431.30027		70.12600		324.00000 
 43692.65567		 261.35540			43431.30027		159.60200		875.00000 
 43692.65567		 261.35540			43431.30027		70.12600		324.00000 
 43692.65567		 261.35540			43431.30027		159.60200		875.00000 
 43692.65567		 261.35540			43431.30027		70.12600		324.00000 
 43692.65567		 261.35540			43431.30027		159.60200		875.00000 
 43692.65567		 261.35540			43431.30027		70.12600		324.00000 
 43692.65567		 261.35540			43431.30027		159.60200		875.00000 
 43692.65567		 261.35540			43431.30027		70.12600		324.00000 
 43692.65567		 261.35540			43431.30027		159.60200		875.00000 
 43692.65567		 261.35540			43431.30027		70.12600		324.00000 
 43692.65567		 265.17429			43427.48138		159.60200		875.00000 
 43692.65567		 261.35540			43431.30027		70.12600		324.00000 
 43692.65567		 265.17429			43427.48138		159.60200		875.00000 
 43692.65567		 261.35540			43431.30027		70.12600		324.00000 
 43692.65567		 272.81207			43419.84360		159.60200		875.00000 
 43692.65567		 261.35540			43431.30027		70.12600		324.00000 
 43692.65567		 272.81207			43419.84360		159.60200		875.00000 
 43692.65567		 261.35540			43431.30027		70.12600		324.00000 
 43692.65567		 272.81207			43419.84360		159.60200		875.00000 
 43692.65567		 265.17429			43427.48138		70.12600		324.00000 
 43692.65567		 272.81207			43419.84360		159.60200		875.00000 
 43692.65567		 265.17429			43427.48138		70.12600		324.00000 
 43692.65567		 272.81207			43419.84360		159.60200		875.00000 
 43692.65567		 265.17429			43427.48138		70.12600		324.00000 
 43692.65567		 272.81207			43419.84360		159.60200		875.00000 
 43692.65567		 272.81207			43419.84360		70.12600		324.00000 
 43692.65567		 272.81207			43419.84360		159.60200		875.00000 
 43692.65567		 272.81207			43419.84360		70.12600		324.00000 
 43692.65567		 272.81207			43419.84360		159.60200		875.00000 
 43692.65567		 272.81207			43419.84360		70.12600		324.00000 
 43692.65567		 305.27265			43387.38302		159.60200		875.00000 
 43692.65567		 305.27265			43387.38302		70.12600		324.00000 
 43692.65567		 305.27265			43387.38302		159.60200		875.00000 
 43692.65567		 305.27265			43387.38302		70.12600		324.00000 
 43692.65567		 305.27265			43387.38302		159.60200		875.00000 
 43692.65567		 305.27265			43387.38302		70.12600		324.00000 
 43692.65567		 305.27265			43387.38302		159.60200		875.00000 
 43692.65567		 305.27265			43387.38302		70.12600		324.00000 
 43692.65567		 305.27265			43387.38302		159.60200		875.00000 
 43692.65567		 305.27265			43387.38302		70.12600		324.00000 
 43692.65567		 309.56891			43383.08677		159.60200		875.00000 
 43692.65567		 305.27265			43387.38302		70.12600		324.00000 
 43692.65567		 311.00099			43381.65468		159.60200		875.00000 
 43692.65567		 305.27265			43387.38302		70.12600		324.00000 
 43692.65567		 311.00099			43381.65468		159.60200		875.00000 
 43692.65567		 305.27265			43387.38302		70.12600		324.00000 
 43692.65567		 311.00099			43381.65468		159.60200		875.00000 
 43692.65567		 305.27265			43387.38302		70.12600		324.00000 
 43692.65567		 311.00099			43381.65468		159.60200		875.00000 
 43692.65567		 305.27265			43387.38302		70.12600		324.00000 
 43692.65567		 311.00099			43381.65468		159.60200		875.00000 
 43692.65567		 305.27265			43387.38302		70.12600		324.00000 
 43692.65567		 311.00099			43381.65468		159.60200		875.00000 
 43692.65567		 305.27265			43387.38302		70.12600		324.00000 
 43692.65567		 311.00099			43381.65468		159.60200		875.00000 
 43692.65567		 305.27265			43387.38302		70.12600		324.00000 
 43692.65567		 311.00099			43381.65468		159.60200		875.00000 
 43692.65567		 305.27265			43387.38302		70.12600		324.00000 
 43692.65567		 311.00099			43381.65468		159.60200		875.00000 
 43692.65567		 305.27265			43387.38302		70.12600		324.00000 
 43692.65567		 311.00099			43381.65468		159.60200		875.00000 
 43692.65567		 305.27265			43387.38302		70.12600		324.00000 
 43692.65567		 311.00099			43381.65468		141.99800		875.00000 
 43692.65567		 305.27265			43387.38302		70.12600		324.00000 
 43692.65567		 311.00099			43381.65468		141.99800		875.00000 
 43692.65567		 305.27265			43387.38302		70.12600		324.00000 
 43692.65567		 311.00099			43381.65468		141.99800		875.00000 
 43692.65567		 305.27265			43387.38302		70.12600		324.00000 
 43692.65567		 311.00099			43381.65468		141.99800		875.00000 
 43692.65567		 305.27265			43387.38302		70.12600		324.00000 
 43692.65567		 311.00099			43381.65468		141.99800		875.00000 
 43692.65567		 305.27265			43387.38302		70.12600		324.00000 
 43692.65567		 311.00099			43381.65468		141.99800		875.00000 
 43692.65567		 305.27265			43387.38302		70.12600		324.00000 
 43692.65567		 311.00099			43381.65468		141.99800		875.00000 
 43692.65567		 305.27265			43387.38302		66.69400		324.00000 
 43692.65567		 311.00099			43381.65468		141.99800		875.00000 
 43692.65567		 305.27265			43387.38302		66.69400		324.00000 
 43692.65567		 311.00099			43381.65468		141.99800		875.00000 
 43692.65567		 305.27265			43387.38302		66.69400		324.00000 
 43692.65567		 311.00099			43381.65468		141.99800		875.00000 
 43692.65567		 305.27265			43387.38302		66.69400		324.00000 
 43692.65567		 311.00099			43381.65468		141.99800		875.00000 
 43692.65567		 305.27265			43387.38302		66.69400		324.00000 
 43692.65567		 311.00099			43381.65468		141.99800		875.00000 
 43692.65567		 305.27265			43387.38302		66.69400		324.00000 
 43692.65567		 311.00099			43381.65468		141.99800		875.00000 
 43692.65567		 305.27265			43387.38302		66.69400		324.00000 
 43692.65567		 311.00099			43381.65468		141.99800		875.00000 
 43692.65567		 305.27265			43387.38302		66.69400		324.00000 
 43692.65567		 311.00099			43381.65468		141.99800		875.00000 
 43692.65567		 305.27265			43387.38302		66.69400		324.00000 
 43692.65567		 311.00099			43381.65468		141.99800		875.00000 
 43692.65567		 305.27265			43387.38302		66.69400		324.00000 
 43692.65567		 311.00099			43381.65468		141.99800		875.00000 
 43692.65567		 305.27265			43387.38302		66.69400		324.00000 
 43692.65567		 311.00099			43381.65468		141.99800		875.00000 
 43692.65567		 305.27265			43387.38302		66.69400		324.00000 
 43692.65567		 311.00099			43381.65468		141.99800		875.00000 
 43692.65567		 305.27265			43387.38302		66.69400		324.00000 
 43692.65567		 311.00099			43381.65468		141.99800		875.00000 
 43692.65567		 305.27265			43387.38302		66.69400		324.00000 
 43692.65567		 311.00099			43381.65468		141.99800		875.00000 
 43692.65567		 305.27265			43387.38302		66.69400		324.00000 
 43692.65567		 311.00099			43381.65468		141.99800		875.00000 
 43692.65567		 305.27265			43387.38302		66.69400		324.00000 
 43692.65567		 311.00099			43381.65468		141.99800		875.00000 
 43692.65567		 305.27265			43387.38302		66.69400		324.00000 
 43692.65567		 311.00099			43381.65468		141.99800		875.00000 
 43692.65567		 305.27265			43387.38302		66.69400		324.00000 
 43692.65567		 311.00099			43381.65468		141.99800		875.00000 
 43692.65567		 305.27265			43387.38302		66.69400		324.00000 
 43692.65567		 311.00099			43381.65468		141.99800		875.00000 
 43692.65567		 305.27265			43387.38302		66.69400		324.00000 
 43692.65567		 311.00099			43381.65468		141.99800		875.00000 
 43692.65567		 305.27265			43387.38302		66.69400		324.00000 
 43692.65567		 311.00099			43381.65468		141.99800		875.00000 
 43692.65567		 305.27265			43387.38302		66.69400		324.00000 
 43692.65567		 311.00099			43381.65468		141.99800		875.00000 
 43692.65567		 305.27265			43387.38302		66.69400		324.00000 
 43692.65567		 311.00099			43381.65468		141.99800		875.00000 
 43692.65567		 305.27265			43387.38302		66.69400		324.00000 
 43692.65567		 311.00099			43381.65468		141.99800		875.00000 
 43692.65567		 305.27265			43387.38302		66.69400		324.00000 
 43692.65567		 311.00099			43381.65468		141.99800		875.00000 
 43692.65567		 305.27265			43387.38302		66.69400		324.00000 
 43692.65567		 311.00099			43381.65468		135.62600		875.00000 
 43692.65567		 305.27265			43387.38302		66.69400		324.00000 
 43692.65567		 311.00099			43381.65468		135.62600		875.00000 
 43692.65567		 305.27265			43387.38302		66.69400		324.00000 
 43692.65567		 311.00099			43381.65468		135.62600		875.00000 
 43692.65567		 305.27265			43387.38302		66.69400		324.00000 
 43692.65567		 311.00099			43381.65468		135.62600		875.00000 
 43692.65567		 305.27265			43387.38302		66.69400		324.00000 
 43692.65567		 311.00099			43381.65468		135.62600		875.00000 
 43692.65567		 305.27265			43387.38302		66.69400		324.00000 
 43692.65567		 311.00099			43381.65468		135.62600		875.00000 
 43692.65567		 305.27265			43387.38302		66.69400		324.00000 
 43692.65567		 311.00099			43381.65468		135.62600		875.00000 
 43692.65567		 305.27265			43387.38302		66.69400		324.00000 
 43692.65567		 311.00099			43381.65468		135.62600		875.00000 
 43692.65567		 305.27265			43387.38302		66.69400		324.00000 
 43692.65567		 311.00099			43381.65468		135.62600		875.00000 
 43692.65567		 305.27265			43387.38302		66.69400		324.00000 
 43692.65567		 314.81988			43377.83579		135.62600		875.00000 
 43692.65567		 305.27265			43387.38302		66.69400		324.00000 
 43692.65567		 314.81988			43377.83579		135.62600		875.00000 
 43692.65567		 305.27265			43387.38302		66.69400		324.00000 
 43692.65567		 314.81988			43377.83579		135.62600		875.00000 
 43692.65567		 305.27265			43387.38302		66.69400		324.00000 
 43692.65567		 318.63877			43374.01690		135.62600		875.00000 
 43692.65567		 305.27265			43387.38302		66.69400		324.00000 
 43692.65567		 322.45767			43370.19801		135.62600		875.00000 
 43692.65567		 305.27265			43387.38302		66.69400		324.00000 
 43692.65567		 326.27656			43366.37912		135.62600		875.00000 
 43692.65567		 305.27265			43387.38302		66.69400		324.00000 
 43692.65567		 326.27656			43366.37912		135.62600		875.00000 
 43692.65567		 305.27265			43387.38302		66.69400		324.00000 
 43692.65567		 326.27656			43366.37912		135.62600		875.00000 
 43692.65567		 305.27265			43387.38302		66.69400		324.00000 
 43692.65567		 537.27032			43155.38535		135.62600		875.00000 
 43692.65567		 305.27265			43387.38302		66.69400		324.00000 
 43692.65567		 672.84098			43019.81470		135.62600		875.00000 
 43692.65567		 305.27265			43387.38302		66.69400		324.00000 
 43692.65567		 740.62630			42952.02937		135.62600		875.00000 
 43692.65567		 305.27265			43387.38302		66.69400		324.00000 
 43692.65567		 740.62630			42952.02937		135.62600		875.00000 
 43692.65567		 305.27265			43387.38302		66.69400		324.00000 
 43692.65567		 740.62630			42952.02937		135.62600		875.00000 
 43692.65567		 305.27265			43387.38302		66.69400		324.00000 
 43692.65567		 740.62630			42952.02937		135.62600		875.00000 
 43692.65567		 305.27265			43387.38302		66.69400		324.00000 
 43692.65567		 740.62630			42952.02937		135.62600		875.00000 
 43692.65567		 305.27265			43387.38302		66.69400		324.00000 
 43692.65567		 740.62630			42952.02937		135.62600		875.00000 
 43692.65567		 305.27265			43387.38302		66.69400		324.00000 
 43692.65567		 740.62630			42952.02937		135.62600		875.00000 
 43692.65567		 305.27265			43387.38302		66.69400		324.00000 
 43692.65567		 740.62630			42952.02937		135.62600		875.00000 
 43692.65567		 305.27265			43387.38302		66.69400		324.00000 
 43692.65567		 740.62630			42952.02937		135.62600		875.00000 
 43692.65567		 305.27265			43387.38302		66.69400		324.00000 
 43692.65567		 740.62630			42952.02937		135.62600		875.00000 
 43692.65567		 305.27265			43387.38302		66.69400		324.00000 
 43692.65567		 740.62630			42952.02937		135.62600		875.00000 
 43692.65567		 305.27265			43387.38302		66.69400		324.00000 
 43692.65567		 740.62630			42952.02937		135.62600		875.00000 
 43692.65567		 305.27265			43387.38302		66.69400		324.00000 
 43692.65567		 740.62630			42952.02937		135.62600		875.00000 
 43692.65567		 305.27265			43387.38302		66.69400		324.00000 
 43692.65567		 740.62630			42952.02937		135.62600		875.00000 
 43692.65567		 305.27265			43387.38302		66.69400		324.00000 
 43692.65567		 740.62630			42952.02937		135.62600		875.00000 
 43692.65567		 305.27265			43387.38302		66.69400		324.00000 
 43692.65567		 740.62630			42952.02937		135.62600		875.00000 
 43692.65567		 305.27265			43387.38302		66.69400		324.00000 
 43692.65567		 740.62630			42952.02937		135.62600		875.00000 
 43692.65567		 305.27265			43387.38302		66.69400		324.00000 
 43692.65567		 740.62630			42952.02937		135.62600		875.00000 
 43692.65567		 305.27265			43387.38302		66.69400		324.00000 
 43692.65567		 740.62630			42952.02937		135.62600		875.00000 
 43692.65567		 305.27265			43387.38302		66.69400		324.00000 
 43692.65567		 740.62630			42952.02937		135.62600		875.00000 
 43692.65567		 305.27265			43387.38302		66.69400		324.00000 
 43692.65567		 740.62630			42952.02937		135.62600		875.00000 
 43692.65567		 305.27265			43387.38302		66.69400		324.00000 
 43692.65567		 740.62630			42952.02937		135.62600		875.00000 
 43692.65567		 305.27265			43387.38302		66.69400		324.00000 
 43692.65567		 740.62630			42952.02937		135.62600		875.00000 
 43692.65567		 305.27265			43387.38302		66.69400		324.00000 
 43692.65567		 740.62630			42952.02937		135.62600		875.00000 
 43692.65567		 305.27265			43387.38302		66.69400		324.00000 
 43692.65567		 740.62630			42952.02937		135.62600		875.00000 
 43692.65567		 305.27265			43387.38302		66.69400		324.00000 
 43692.65567		 740.62630			42952.02937		135.62600		875.00000 
 43692.65567		 305.27265			43387.38302		66.69400		324.00000 
 43692.65567		 740.62630			42952.02937		135.62600		875.00000 
 43692.65567		 305.27265			43387.38302		66.69400		324.00000 
 43692.65567		 740.62630			42952.02937		135.62600		875.00000 
 43692.65567		 305.27265			43387.38302		66.69400		324.00000 
 43692.65567		 740.62630			42952.02937		135.62600		875.00000 
 43692.65567		 305.27265			43387.38302		66.69400		324.00000 
 43692.65567		 740.62630			42952.02937		135.62600		875.00000 
 43692.65567		 305.27265			43387.38302		66.69400		324.00000 
 43692.65567		 740.62630			42952.02937		166.02600		875.00000 
 43692.65567		 305.27265			43387.38302		66.69400		324.00000 
 43692.65567		 740.62630			42952.02937		166.02600		875.00000 
 43692.65567		 305.27265			43387.38302		66.69400		324.00000 
 43692.65567		 740.62630			42952.02937		166.02600		875.00000 
 43692.65567		 305.27265			43387.38302		66.69400		324.00000 
 43692.65567		 740.62630			42952.02937		166.02600		875.00000 
 43692.65567		 305.27265			43387.38302		66.69400		324.00000 
 43692.65567		 740.62630			42952.02937		166.02600		875.00000 
 43692.65567		 305.27265			43387.38302		66.69400		324.00000 
 43692.65567		 740.62630			42952.02937		166.02600		875.00000 
 43692.65567		 305.27265			43387.38302		66.69400		324.00000 
 43692.65567		 740.62630			42952.02937		166.02600		875.00000 
 43692.65567		 305.27265			43387.38302		66.69400		324.00000 
 43692.65567		 740.62630			42952.02937		166.02600		875.00000 
 43692.65567		 305.27265			43387.38302		66.69400		324.00000 
 43692.65567		 740.62630			42952.02937		166.02600		875.00000 
 43692.65567		 305.27265			43387.38302		66.69400		324.00000 
 43692.65567		 740.62630			42952.02937		166.02600		875.00000 
 43692.65567		 305.27265			43387.38302		66.69400		324.00000 
 43692.65567		 740.62630			42952.02937		166.02600		875.00000 
 43692.65567		 305.27265			43387.38302		66.69400		324.00000 
 43692.65567		 740.62630			42952.02937		166.02600		875.00000 
 43692.65567		 305.27265			43387.38302		66.69400		324.00000 
 43692.65567		 740.62630			42952.02937		166.02600		875.00000 
 43692.65567		 305.27265			43387.38302		66.69400		324.00000 
 43692.65567		 740.62630			42952.02937		166.02600		875.00000 
 43692.65567		 305.27265			43387.38302		66.69400		324.00000 
 43692.65567		 740.62630			42952.02937		166.02600		875.00000 
 43692.65567		 305.27265			43387.38302		66.69400		324.00000 
 43692.65567		 740.62630			42952.02937		166.02600		875.00000 
 43692.65567		 305.27265			43387.38302		66.69400		324.00000 
 43692.65567		 740.62630			42952.02937		166.02600		875.00000 
 43692.65567		 305.27265			43387.38302		66.69400		324.00000 
 43692.65567		 740.62630			42952.02937		166.02600		875.00000 
 43692.65567		 305.27265			43387.38302		66.69400		324.00000 
 43692.65567		 740.62630			42952.02937		166.02600		875.00000 
 43692.65567		 305.27265			43387.38302		66.69400		324.00000 
 43692.65567		 740.62630			42952.02937		166.02600		875.00000 
 43692.65567		 305.27265			43387.38302		66.69400		324.00000 
 43692.65567		 740.62630			42952.02937		166.02600		875.00000 
 43692.65567		 305.27265			43387.38302		66.69400		324.00000 
 43692.65567		 740.62630			42952.02937		166.02600		875.00000 
 43692.65567		 305.27265			43387.38302		66.69400		324.00000 
 43692.65567		 740.62630			42952.02937		166.02600		875.00000 
 43692.65567		 305.27265			43387.38302		66.69400		324.00000 
 43692.65567		 740.62630			42952.02937		166.02600		875.00000 
 43692.65567		 305.27265			43387.38302		66.69400		324.00000 
 43692.65567		 740.62630			42952.02937		166.02600		875.00000 
 43692.65567		 305.27265			43387.38302		66.69400		324.00000 
 43692.65567		 740.62630			42952.02937		166.02600		875.00000 
 43692.65567		 305.27265			43387.38302		66.69400		324.00000 
 43692.65567		 740.62630			42952.02937		166.02600		875.00000 
 43692.65567		 305.27265			43387.38302		66.69400		324.00000 
 43692.65567		 740.62630			42952.02937		166.02600		875.00000 
 43692.65567		 305.27265			43387.38302		66.69400		324.00000 
 43692.65567		 740.62630			42952.02937		166.02600		875.00000 
 43692.65567		 305.27265			43387.38302		66.69400		324.00000 
 43692.65567		 740.62630			42952.02937		166.02600		875.00000 
 43692.65567		 305.27265			43387.38302		66.69400		324.00000 
 43692.65567		 740.62630			42952.02937		166.02600		875.00000 
 43692.65567		 305.27265			43387.38302		66.69400		324.00000 
 43692.65567		 740.62630			42952.02937		166.02600		875.00000 
 43692.65567		 305.27265			43387.38302		66.69400		324.00000 
 43692.65567		 740.62630			42952.02937		166.02600		875.00000 
 43692.65567		 305.27265			43387.38302		66.69400		324.00000 
 43692.65567		 740.62630			42952.02937		166.02600		875.00000 
 43692.65567		 305.27265			43387.38302		66.69400		324.00000 
 43692.65567		 740.62630			42952.02937		166.02600		875.00000 
 43692.65567		 305.27265			43387.38302		66.69400		324.00000 
 43692.65567		 740.62630			42952.02937		166.02600		875.00000 
 43692.65567		 305.27265			43387.38302		66.69400		324.00000 
 43692.65567		 740.62630			42952.02937		166.02600		875.00000 
 43692.65567		 305.27265			43387.38302		66.69400		324.00000 
 43692.65567		 740.62630			42952.02937		166.02600		875.00000 
 43692.65567		 305.27265			43387.38302		66.69400		324.00000 
 43692.65567		 740.62630			42952.02937		166.02600		875.00000 
 43692.65567		 305.27265			43387.38302		66.69400		324.00000 
 43692.65567		 740.62630			42952.02937		166.02600		875.00000 
 43692.65567		 305.27265			43387.38302		66.69400		324.00000 
 43692.65567		 740.62630			42952.02937		166.02600		875.00000 
 43692.65567		 305.27265			43387.38302		66.69400		324.00000 
 43692.65567		 740.62630			42952.02937		166.02600		875.00000 
 43692.65567		 305.27265			43387.38302		66.69400		324.00000 
 43692.65567		 740.62630			42952.02937		166.02600		875.00000 
 43692.65567		 305.27265			43387.38302		66.69400		324.00000 
 43692.65567		 740.62630			42952.02937		166.02600		875.00000 
 43692.65567		 305.27265			43387.38302		66.69400		324.00000 
 43692.65567		 740.62630			42952.02937		166.02600		875.00000 
 43692.65567		 305.27265			43387.38302		66.69400		324.00000 
 43692.65567		 740.62630			42952.02937		166.02600		875.00000 
 43692.65567		 305.27265			43387.38302		66.69400		324.00000 
 43692.65567		 740.62630			42952.02937		166.02600		875.00000 
 43692.65567		 305.27265			43387.38302		66.69400		324.00000 
 43692.65567		 740.62630			42952.02937		166.02600		875.00000 
 43692.65567		 305.27265			43387.38302		66.69400		324.00000 
 43692.65567		 740.62630			42952.02937		166.02600		875.00000 
 43692.65567		 305.27265			43387.38302		66.69400		324.00000 
 43692.65567		 740.62630			42952.02937		166.02600		875.00000 
 43692.65567		 305.27265			43387.38302		66.69400		324.00000 
 43692.65567		 740.62630			42952.02937		166.02600		875.00000 
 43692.65567		 305.27265			43387.38302		66.69400		324.00000 
 43692.65567		 740.62630			42952.02937		166.02600		875.00000 
 43692.65567		 305.27265			43387.38302		66.69400		324.00000 
 43692.65567		 740.62630			42952.02937		166.02600		875.00000 
 43692.65567		 305.27265			43387.38302		66.69400		324.00000 
 43692.65567		 740.62630			42952.02937		166.02600		875.00000 
 43692.65567		 305.27265			43387.38302		66.69400		324.00000 
 43692.65567		 740.62630			42952.02937		166.02600		875.00000 
 43692.65567		 305.27265			43387.38302		66.69400		324.00000 
 43692.65567		 740.62630			42952.02937		166.02600		875.00000 
 43692.65567		 305.27265			43387.38302		66.69400		324.00000 
 43692.65567		 740.62630			42952.02937		166.02600		875.00000 
 43692.65567		 305.27265			43387.38302		66.69400		324.00000 
 43692.65567		 740.62630			42952.02937		166.02600		875.00000 
 43692.65567		 305.27265			43387.38302		66.69400		324.00000 
 43692.65567		 740.62630			42952.02937		166.02600		875.00000 
 43692.65567		 305.27265			43387.38302		66.69400		324.00000 
 43692.65567		 740.62630			42952.02937		166.02600		875.00000 
 43692.65567		 305.27265			43387.38302		66.69400		324.00000 
 43692.65567		 740.62630			42952.02937		166.02600		875.00000 
 43692.65567		 305.27265			43387.38302		66.69400		324.00000 
 43692.65567		 740.62630			42952.02937		166.02600		875.00000 
 43692.65567		 305.27265			43387.38302		66.69400		324.00000 
 43692.65567		 740.62630			42952.02937		166.02600		875.00000 
 43692.65567		 305.27265			43387.38302		66.69400		324.00000 
 43692.65567		 740.62630			42952.02937		166.02600		875.00000 
 43692.65567		 305.27265			43387.38302		66.69400		324.00000 
 43692.65567		 740.62630			42952.02937		199.31800		875.00000 
 43692.65567		 305.27265			43387.38302		66.69400		324.00000 
 43692.65567		 740.62630			42952.02937		199.31800		875.00000 
 43692.65567		 305.27265			43387.38302		66.69400		324.00000 
 43692.65567		 740.62630			42952.02937		199.31800		875.00000 
 43692.65567		 305.27265			43387.38302		66.69400		324.00000 
 43692.65567		 740.62630			42952.02937		199.31800		875.00000 
 43692.65567		 305.27265			43387.38302		66.69400		324.00000 
 43692.65567		 740.62630			42952.02937		199.31800		875.00000 
 43692.65567		 305.27265			43387.38302		66.69400		324.00000 
 43692.65567		 740.62630			42952.02937		199.31800		875.00000 
 43692.65567		 305.27265			43387.38302		66.69400		324.00000 
 43692.65567		 740.62630			42952.02937		199.31800		875.00000 
 43692.65567		 305.27265			43387.38302		66.69400		324.00000 
 43692.65567		 740.62630			42952.02937		199.31800		875.00000 
 43692.65567		 305.27265			43387.38302		66.69400		324.00000 
 43692.65567		 740.62630			42952.02937		199.31800		875.00000 
 43692.65567		 305.27265			43387.38302		66.69400		324.00000 
 43692.65567		 740.62630			42952.02937		199.31800		875.00000 
 43692.65567		 305.27265			43387.38302		66.69400		324.00000 
 43692.65567		 740.62630			42952.02937		199.31800		875.00000 
 43692.65567		 305.27265			43387.38302		66.69400		324.00000 
 43692.65567		 740.62630			42952.02937		199.31800		875.00000 
 43692.65567		 305.27265			43387.38302		66.69400		324.00000 
 43692.65567		 740.62630			42952.02937		199.31800		875.00000 
 43692.65567		 305.27265			43387.38302		66.69400		324.00000 
 43692.65567		 740.62630			42952.02937		199.31800		875.00000 
 43692.65567		 305.27265			43387.38302		66.69400		324.00000 
 43692.65567		 740.62630			42952.02937		199.31800		875.00000 
 43692.65567		 305.27265			43387.38302		66.69400		324.00000 
 43692.65567		 740.62630			42952.02937		199.31800		875.00000 
 43692.65567		 305.27265			43387.38302		66.69400		324.00000 
 43692.65567		 740.62630			42952.02937		199.31800		875.00000 
 43692.65567		 305.27265			43387.38302		66.69400		324.00000 
 43692.65567		 740.62630			42952.02937		199.31800		875.00000 
 43692.65567		 305.27265			43387.38302		66.69400		324.00000 
 43692.65567		 740.62630			42952.02937		199.31800		875.00000 
 43692.65567		 305.27265			43387.38302		66.69400		324.00000 
 43692.65567		 740.62630			42952.02937		199.31800		875.00000 
 43692.65567		 305.27265			43387.38302		66.69400		324.00000 
 43692.65567		 740.62630			42952.02937		199.31800		875.00000 
 43692.65567		 305.27265			43387.38302		66.69400		324.00000 
 43692.65567		 740.62630			42952.02937		199.31800		875.00000 
 43692.65567		 305.27265			43387.38302		66.69400		324.00000 
 43692.65567		 740.62630			42952.02937		199.31800		875.00000 
 43692.65567		 305.27265			43387.38302		66.69400		324.00000 
 43692.65567		 740.62630			42952.02937		199.31800		875.00000 
 43692.65567		 305.27265			43387.38302		66.69400		324.00000 
 43692.65567		 740.62630			42952.02937		199.31800		875.00000 
 43692.65567		 305.27265			43387.38302		66.69400		324.00000 
 43692.65567		 740.62630			42952.02937		199.31800		875.00000 
 43692.65567		 305.27265			43387.38302		66.69400		324.00000 
 43692.65567		 740.62630			42952.02937		199.31800		875.00000 
 43692.65567		 305.27265			43387.38302		66.69400		324.00000 
 43692.65567		 740.62630			42952.02937		199.31800		875.00000 
 43692.65567		 305.27265			43387.38302		66.69400		324.00000 
 43692.65567		 740.62630			42952.02937		199.31800		875.00000 
 43692.65567		 305.27265			43387.38302		66.69400		324.00000 
 43692.65567		 740.62630			42952.02937		199.31800		875.00000 
 43692.65567		 305.27265			43387.38302		66.69400		324.00000 
 43692.65567		 740.62630			42952.02937		199.31800		875.00000 
 43692.65567		 305.27265			43387.38302		66.69400		324.00000 
 43692.65567		 740.62630			42952.02937		199.31800		875.00000 
 43692.65567		 305.27265			43387.38302		66.69400		324.00000 
 43692.65567		 740.62630			42952.02937		199.31800		875.00000 
 43692.65567		 305.27265			43387.38302		66.69400		324.00000 
 43692.65567		 740.62630			42952.02937		199.31800		875.00000 
 43692.65567		 305.27265			43387.38302		66.69400		324.00000 
 43692.65567		 740.62630			42952.02937		199.31800		875.00000 
 43692.65567		 305.27265			43387.38302		66.69400		324.00000 
 43692.65567		 740.62630			42952.02937		199.31800		875.00000 
 43692.65567		 305.27265			43387.38302		66.69400		324.00000 
 43692.65567		 740.62630			42952.02937		199.31800		875.00000 
 43692.65567		 305.27265			43387.38302		66.69400		324.00000 
 43692.65567		 740.62630			42952.02937		199.31800		875.00000 
 43692.65567		 305.27265			43387.38302		66.69400		324.00000 
 43692.65567		 740.62630			42952.02937		199.31800		875.00000 
 43692.65567		 305.27265			43387.38302		66.69400		324.00000 
 43692.65567		 740.62630			42952.02937		199.31800		875.00000 
 43692.65567		 305.27265			43387.38302		66.69400		324.00000 
 43692.65567		 740.62630			42952.02937		199.31800		875.00000 
 43692.65567		 305.27265			43387.38302		66.69400		324.00000 
 43692.65567		 740.62630			42952.02937		199.31800		875.00000 
 43692.65567		 305.27265			43387.38302		66.69400		324.00000 
 43692.65567		 740.62630			42952.02937		199.31800		875.00000 
 43692.65567		 305.27265			43387.38302		66.69400		324.00000 
 43692.65567		 740.62630			42952.02937		199.31800		875.00000 
 43692.65567		 305.27265			43387.38302		66.69400		324.00000 
 43692.65567		 740.62630			42952.02937		199.31800		875.00000 
 43692.65567		 305.27265			43387.38302		66.69400		324.00000 
 43692.65567		 740.62630			42952.02937		199.31800		875.00000 
 43692.65567		 305.27265			43387.38302		66.69400		324.00000 
 43692.65567		 740.62630			42952.02937		199.31800		875.00000 
 43692.65567		 305.27265			43387.38302		66.69400		324.00000 
 43692.65567		 740.62630			42952.02937		199.31800		875.00000 
 43692.65567		 305.27265			43387.38302		66.69400		324.00000 
 43692.65567		 740.62630			42952.02937		199.31800		875.00000 
 43692.65567		 305.27265			43387.38302		66.69400		324.00000 
 43692.65567		 740.62630			42952.02937		199.31800		875.00000 
 43692.65567		 305.27265			43387.38302		66.69400		324.00000 
 43692.65567		 740.62630			42952.02937		199.31800		875.00000 
 43692.65567		 305.27265			43387.38302		66.69400		324.00000 
 43692.65567		 740.62630			42952.02937		199.31800		875.00000 
 43692.65567		 305.27265			43387.38302		66.69400		324.00000 
 43692.65567		 740.62630			42952.02937		199.31800		875.00000 
 43692.65567		 305.27265			43387.38302		66.69400		324.00000 
 43692.65567		 740.62630			42952.02937		199.31800		875.00000 
 43692.65567		 305.27265			43387.38302		66.69400		324.00000 
 43692.65567		 740.62630			42952.02937		199.31800		875.00000 
 43692.65567		 305.27265			43387.38302		66.69400		324.00000 
 43692.65567		 740.62630			42952.02937		199.31800		875.00000 
 43692.65567		 305.27265			43387.38302		66.69400		324.00000 
 43692.65567		 740.62630			42952.02937		199.31800		875.00000 
 43692.65567		 305.27265			43387.38302		66.69400		324.00000 
 43692.65567		 740.62630			42952.02937		199.31800		875.00000 
 43692.65567		 305.27265			43387.38302		66.69400		324.00000 
 43692.65567		 740.62630			42952.02937		199.31800		875.00000 
 43692.65567		 305.27265			43387.38302		66.69400		324.00000 
 43692.65567		 740.62630			42952.02937		199.31800		875.00000 
 43692.65567		 305.27265			43387.38302		66.69400		324.00000 
 43692.65567		 740.62630			42952.02937		199.31800		875.00000 
 43692.65567		 305.27265			43387.38302		66.69400		324.00000 
 43692.65567		 740.62630			42952.02937		199.31800		875.00000 
 43692.65567		 305.27265			43387.38302		66.69400		324.00000 
 43692.65567		 740.62630			42952.02937		199.31800		875.00000 
 43692.65567		 305.27265			43387.38302		66.69400		324.00000 
 43692.65567		 740.62630			42952.02937		199.31800		875.00000 
 43692.65567		 305.27265			43387.38302		66.69400		324.00000 
 43692.65567		 740.62630			42952.02937		199.31800		875.00000 
 43692.65567		 305.27265			43387.38302		66.69400		324.00000 
 43692.65567		 740.62630			42952.02937		212.97200		875.00000 
 43692.65567		 305.27265			43387.38302		66.69400		324.00000 
 43692.65567		 740.62630			42952.02937		212.97200		875.00000 
 43692.65567		 305.27265			43387.38302		66.69400		324.00000 
 43692.65567		 740.62630			42952.02937		212.97200		875.00000 
 43692.65567		 305.27265			43387.38302		66.69400		324.00000 
 43692.65567		 740.62630			42952.02937		212.97200		875.00000 
 43692.65567		 305.27265			43387.38302		66.69400		324.00000 
 43692.65567		 740.62630			42952.02937		212.97200		875.00000 
 43692.65567		 305.27265			43387.38302		66.69400		324.00000 
 43692.65567		 740.62630			42952.02937		212.97200		875.00000 
 43692.65567		 305.27265			43387.38302		66.69400		324.00000 
 43692.65567		 740.62630			42952.02937		212.97200		875.00000 
 43692.65567		 305.27265			43387.38302		66.69400		324.00000 
 43692.65567		 740.62630			42952.02937		212.97200		875.00000 
 43692.65567		 305.27265			43387.38302		66.69400		324.00000 
 43692.65567		 740.62630			42952.02937		212.97200		875.00000 
 43692.65567		 305.27265			43387.38302		66.69400		324.00000 
 43692.65567		 740.62630			42952.02937		212.97200		875.00000 
 43692.65567		 305.27265			43387.38302		66.69400		324.00000 
 43692.65567		 740.62630			42952.02937		212.97200		875.00000 
 43692.65567		 305.27265			43387.38302		66.69400		324.00000 
 43692.65567		 740.62630			42952.02937		212.97200		875.00000 
 43692.65567		 305.27265			43387.38302		66.69400		324.00000 
 43692.65567		 740.62630			42952.02937		212.97200		875.00000 
 43692.65567		 305.27265			43387.38302		66.69400		324.00000 
 43692.65567		 740.62630			42952.02937		212.97200		875.00000 
 43692.65567		 305.27265			43387.38302		66.69400		324.00000 
 43692.65567		 740.62630			42952.02937		212.97200		875.00000 
 43692.65567		 305.27265			43387.38302		66.69400		324.00000 
 43692.65567		 740.62630			42952.02937		212.97200		875.00000 
 43692.65567		 305.27265			43387.38302		66.69400		324.00000 
 43692.65567		 740.62630			42952.02937		212.97200		875.00000 
 43692.65567		 305.27265			43387.38302		66.69400		324.00000 
 43692.65567		 740.62630			42952.02937		212.97200		875.00000 
 43692.65567		 305.27265			43387.38302		66.69400		324.00000 
 43692.65567		 740.62630			42952.02937		212.97200		875.00000 
 43692.65567		 305.27265			43387.38302		66.69400		324.00000 
 43692.65567		 740.62630			42952.02937		212.97200		875.00000 
 43692.65567		 305.27265			43387.38302		66.69400		324.00000 
 43692.65567		 740.62630			42952.02937		212.97200		875.00000 
 43692.65567		 305.27265			43387.38302		66.69400		324.00000 
 43692.65567		 740.62630			42952.02937		212.97200		875.00000 
 43692.65567		 305.27265			43387.38302		66.69400		324.00000 
 43692.65567		 740.62630			42952.02937		212.97200		875.00000 
 43692.65567		 305.27265			43387.38302		66.69400		324.00000 
 43692.65567		 740.62630			42952.02937		212.97200		875.00000 
 43692.65567		 305.27265			43387.38302		66.69400		324.00000 
 43692.65567		 740.62630			42952.02937		212.97200		875.00000 
 43692.65567		 305.27265			43387.38302		66.69400		324.00000 
 43692.65567		 740.62630			42952.02937		212.97200		875.00000 
 43692.65567		 305.27265			43387.38302		66.69400		324.00000 
 43692.65567		 740.62630			42952.02937		212.97200		875.00000 
 43692.65567		 305.27265			43387.38302		66.69400		324.00000 
 43692.65567		 740.62630			42952.02937		212.97200		875.00000 
 43692.65567		 305.27265			43387.38302		66.69400		324.00000 
 43692.65567		 740.62630			42952.02937		212.97200		875.00000 
 43692.65567		 305.27265			43387.38302		66.69400		324.00000 
 43692.65567		 740.62630			42952.02937		212.97200		875.00000 
 43692.65567		 305.27265			43387.38302		66.69400		324.00000 
 43692.65567		 740.62630			42952.02937		212.97200		875.00000 
 43692.65567		 305.27265			43387.38302		66.69400		324.00000 
 43692.65567		 740.62630			42952.02937		212.97200		875.00000 
 43692.65567		 305.27265			43387.38302		66.69400		324.00000 
 43692.65567		 740.62630			42952.02937		212.97200		875.00000 
 43692.65567		 305.27265			43387.38302		66.69400		324.00000 
 43692.65567		 740.62630			42952.02937		212.97200		875.00000 
 43692.65567		 305.27265			43387.38302		66.69400		324.00000 
 43692.65567		 740.62630			42952.02937		212.97200		875.00000 
 43692.65567		 305.27265			43387.38302		66.69400		324.00000 
 43692.65567		 740.62630			42952.02937		212.97200		875.00000 
 43692.65567		 305.27265			43387.38302		66.69400		324.00000 
 43692.65567		 740.62630			42952.02937		212.97200		875.00000 
 43692.65567		 305.27265			43387.38302		66.69400		324.00000 
 43692.65567		 740.62630			42952.02937		212.97200		875.00000 
 43692.65567		 305.27265			43387.38302		66.69400		324.00000 
 43692.65567		 740.62630			42952.02937		212.97200		875.00000 
 43692.65567		 305.27265			43387.38302		66.69400		324.00000 
 43692.65567		 740.62630			42952.02937		212.97200		875.00000 
 43692.65567		 305.27265			43387.38302		66.69400		324.00000 
 43692.65567		 740.62630			42952.02937		212.97200		875.00000 
 43692.65567		 305.27265			43387.38302		66.69400		324.00000 
 43692.65567		 740.62630			42952.02937		212.97200		875.00000 
 43692.65567		 305.27265			43387.38302		66.69400		324.00000 
 43692.65567		 740.62630			42952.02937		212.97200		875.00000 
 43692.65567		 305.27265			43387.38302		66.69400		324.00000 
 43692.65567		 740.62630			42952.02937		212.97200		875.00000 
 43692.65567		 305.27265			43387.38302		66.69400		324.00000 
 43692.65567		 740.62630			42952.02937		212.97200		875.00000 
 43692.65567		 305.27265			43387.38302		66.69400		324.00000 
 43692.65567		 740.62630			42952.02937		212.97200		875.00000 
 43692.65567		 305.27265			43387.38302		66.69400		324.00000 
 43692.65567		 740.62630			42952.02937		212.97200		875.00000 
 43692.65567		 305.27265			43387.38302		66.69400		324.00000 
 43692.65567		 740.62630			42952.02937		212.97200		875.00000 
 43692.65567		 305.27265			43387.38302		66.69400		324.00000 
 43692.65567		 740.62630			42952.02937		212.97200		875.00000 
 43692.65567		 305.27265			43387.38302		66.69400		324.00000 
 43692.65567		 740.62630			42952.02937		212.97200		875.00000 
 43692.65567		 305.27265			43387.38302		66.69400		324.00000 
 43692.65567		 740.62630			42952.02937		212.97200		875.00000 
 43692.65567		 305.27265			43387.38302		66.69400		324.00000 
 43692.65567		 740.62630			42952.02937		212.97200		875.00000 
 43692.65567		 305.27265			43387.38302		66.69400		324.00000 
 43692.65567		 740.62630			42952.02937		212.97200		875.00000 
 43692.65567		 305.27265			43387.38302		66.69400		324.00000 
 43692.65567		 740.62630			42952.02937		212.97200		875.00000 
 43692.65567		 305.27265			43387.38302		66.69400		324.00000 
 43692.65567		 740.62630			42952.02937		212.97200		875.00000 
 43692.65567		 305.27265			43387.38302		66.69400		324.00000 
 43692.65567		 740.62630			42952.02937		212.97200		875.00000 
 43692.65567		 305.27265			43387.38302		66.69400		324.00000 
 43692.65567		 740.62630			42952.02937		212.97200		875.00000 
 43692.65567		 305.27265			43387.38302		66.69400		324.00000 
 43692.65567		 740.62630			42952.02937		212.97200		875.00000 
 43692.65567		 305.27265			43387.38302		66.69400		324.00000 
 43692.65567		 740.62630			42952.02937		212.97200		875.00000 
 43692.65567		 305.27265			43387.38302		66.69400		324.00000 
 43692.65567		 740.62630			42952.02937		212.97200		875.00000 
 43692.65567		 305.27265			43387.38302		66.69400		324.00000 
 43692.65567		 740.62630			42952.02937		212.97200		875.00000 
 43692.65567		 305.27265			43387.38302		66.69400		324.00000 
 43692.65567		 740.62630			42952.02937		212.97200		875.00000 
 43692.65567		 305.27265			43387.38302		66.69400		324.00000 
 43692.65567		 740.62630			42952.02937		212.97200		875.00000 
 43692.65567		 305.27265			43387.38302		66.69400		324.00000 
 43692.65567		 740.62630			42952.02937		212.97200		875.00000 
 43692.65567		 305.27265			43387.38302		66.69400		324.00000 
 43692.65567		 740.62630			42952.02937		217.58600		875.00000 
 43692.65567		 305.27265			43387.38302		66.69400		324.00000 
 43692.65567		 740.62630			42952.02937		217.58600		875.00000 
 43692.65567		 305.27265			43387.38302		66.69400		324.00000 
 43692.65567		 740.62630			42952.02937		217.58600		875.00000 
 43692.65567		 305.27265			43387.38302		66.69400		324.00000 
 43692.65567		 740.62630			42952.02937		217.58600		875.00000 
 43692.65567		 305.27265			43387.38302		66.69400		324.00000 
 43692.65567		 740.62630			42952.02937		217.58600		875.00000 
 43692.65567		 305.27265			43387.38302		66.69400		324.00000 
 43692.65567		 740.62630			42952.02937		217.58600		875.00000 
 43692.65567		 305.27265			43387.38302		66.69400		324.00000 
 43692.65567		 740.62630			42952.02937		217.58600		875.00000 
 43692.65567		 305.27265			43387.38302		66.69400		324.00000 
 43692.65567		 740.62630			42952.02937		217.58600		875.00000 
 43692.65567		 305.27265			43387.38302		66.69400		324.00000 
 43692.65567		 740.62630			42952.02937		217.58600		875.00000 
 43692.65567		 305.27265			43387.38302		66.69400		324.00000 
 43692.65567		 740.62630			42952.02937		217.58600		875.00000 
 43692.65567		 305.27265			43387.38302		66.69400		324.00000 
 43692.65567		 740.62630			42952.02937		217.58600		875.00000 
 43692.65567		 305.27265			43387.38302		66.69400		324.00000 
 43692.65567		 740.62630			42952.02937		217.58600		875.00000 
 43692.65567		 305.27265			43387.38302		66.69400		324.00000 
 43692.65567		 740.62630			42952.02937		217.58600		875.00000 
 43692.65567		 305.27265			43387.38302		66.69400		324.00000 
 43692.65567		 740.62630			42952.02937		217.58600		875.00000 
 43692.65567		 305.27265			43387.38302		66.69400		324.00000 
 43692.65567		 740.62630			42952.02937		217.58600		875.00000 
 43692.65567		 305.27265			43387.38302		66.69400		324.00000 
 43692.65567		 740.62630			42952.02937		217.58600		875.00000 
 43692.65567		 305.27265			43387.38302		66.69400		324.00000 
 43692.65567		 740.62630			42952.02937		217.58600		875.00000 
 43692.65567		 305.27265			43387.38302		66.69400		324.00000 
 43692.65567		 740.62630			42952.02937		217.58600		875.00000 
 43692.65567		 305.27265			43387.38302		66.69400		324.00000 
 43692.65567		 740.62630			42952.02937		217.58600		875.00000 
 43692.65567		 305.27265			43387.38302		66.69400		324.00000 
 43692.65567		 740.62630			42952.02937		217.58600		875.00000 
 43692.65567		 305.27265			43387.38302		66.69400		324.00000 
 43692.65567		 740.62630			42952.02937		217.58600		875.00000 
 43692.65567		 305.27265			43387.38302		66.69400		324.00000 
 43692.65567		 740.62630			42952.02937		217.58600		875.00000 
 43692.65567		 305.27265			43387.38302		66.69400		324.00000 
 43692.65567		 740.62630			42952.02937		217.58600		875.00000 
 43692.65567		 305.27265			43387.38302		66.69400		324.00000 
 43692.65567		 740.62630			42952.02937		217.58600		875.00000 
 43692.65567		 305.27265			43387.38302		66.69400		324.00000 
 43692.65567		 740.62630			42952.02937		217.58600		875.00000 
 43692.65567		 305.27265			43387.38302		66.69400		324.00000 
 43692.65567		 740.62630			42952.02937		217.58600		875.00000 
 43692.65567		 305.27265			43387.38302		66.69400		324.00000 
 43692.65567		 740.62630			42952.02937		217.58600		875.00000 
 43692.65567		 305.27265			43387.38302		66.69400		324.00000 
 43692.65567		 740.62630			42952.02937		217.58600		875.00000 
 43692.65567		 305.27265			43387.38302		66.69400		324.00000 
 43692.65567		 740.62630			42952.02937		217.58600		875.00000 
 43692.65567		 305.27265			43387.38302		66.69400		324.00000 
 43692.65567		 740.62630			42952.02937		217.58600		875.00000 
 43692.65567		 305.27265			43387.38302		66.69400		324.00000 
 43692.65567		 740.62630			42952.02937		217.58600		875.00000 
 43692.65567		 305.27265			43387.38302		66.69400		324.00000 
 43692.65567		 740.62630			42952.02937		217.58600		875.00000 
 43692.65567		 305.27265			43387.38302		66.69400		324.00000 
 43692.65567		 740.62630			42952.02937		217.58600		875.00000 
 43692.65567		 305.27265			43387.38302		66.69400		324.00000 
 43692.65567		 740.62630			42952.02937		217.58600		875.00000 
 43692.65567		 305.27265			43387.38302		66.69400		324.00000 
 43692.65567		 740.62630			42952.02937		217.58600		875.00000 
 43692.65567		 305.27265			43387.38302		66.69400		324.00000 
 43692.65567		 740.62630			42952.02937		217.58600		875.00000 
 43692.65567		 305.27265			43387.38302		66.69400		324.00000 
 43692.65567		 740.62630			42952.02937		217.58600		875.00000 
 43692.65567		 305.27265			43387.38302		66.69400		324.00000 
 43692.65567		 740.62630			42952.02937		217.58600		875.00000 
 43692.65567		 305.27265			43387.38302		66.69400		324.00000 
 43692.65567		 740.62630			42952.02937		217.58600		875.00000 
 43692.65567		 305.27265			43387.38302		66.69400		324.00000 
 43692.65567		 740.62630			42952.02937		217.58600		875.00000 
 43692.65567		 305.27265			43387.38302		66.69400		324.00000 
 43692.65567		 740.62630			42952.02937		217.58600		875.00000 
 43692.65567		 305.27265			43387.38302		66.69400		324.00000 
 43692.65567		 740.62630			42952.02937		217.58600		875.00000 
 43692.65567		 305.27265			43387.38302		66.69400		324.00000 
 43692.65567		 740.62630			42952.02937		217.58600		875.00000 
 43692.65567		 305.27265			43387.38302		66.69400		324.00000 
 43692.65567		 740.62630			42952.02937		217.58600		875.00000 
 43692.65567		 305.27265			43387.38302		66.69400		324.00000 
 43692.65567		 740.62630			42952.02937		217.58600		875.00000 
 43692.65567		 305.27265			43387.38302		66.69400		324.00000 
 43692.65567		 740.62630			42952.02937		217.58600		875.00000 
 43692.65567		 305.27265			43387.38302		66.69400		324.00000 
 43692.65567		 740.62630			42952.02937		217.58600		875.00000 
 43692.65567		 305.27265			43387.38302		66.69400		324.00000 
 43692.65567		 740.62630			42952.02937		217.58600		875.00000 
 43692.65567		 305.27265			43387.38302		66.69400		324.00000 
 43692.65567		 740.62630			42952.02937		217.58600		875.00000 
 43692.65567		 305.27265			43387.38302		66.69400		324.00000 
 43692.65567		 740.62630			42952.02937		217.58600		875.00000 
 43692.65567		 305.27265			43387.38302		66.69400		324.00000 
 43692.65567		 740.62630			42952.02937		217.58600		875.00000 
 43692.65567		 305.27265			43387.38302		66.69400		324.00000 
 43692.65567		 740.62630			42952.02937		217.58600		875.00000 
 43692.65567		 305.27265			43387.38302		66.69400		324.00000 
 43692.65567		 740.62630			42952.02937		217.58600		875.00000 
 43692.65567		 305.27265			43387.38302		66.69400		324.00000 
 43692.65567		 740.62630			42952.02937		217.58600		875.00000 
 43692.65567		 305.27265			43387.38302		66.69400		324.00000 
 43692.65567		 740.62630			42952.02937		217.58600		875.00000 
 43692.65567		 305.27265			43387.38302		66.69400		324.00000 
 43692.65567		 740.62630			42952.02937		217.58600		875.00000 
 43692.65567		 305.27265			43387.38302		66.69400		324.00000 
 43692.65567		 740.62630			42952.02937		217.58600		875.00000 
 43692.65567		 305.27265			43387.38302		66.69400		324.00000 
 43692.65567		 740.62630			42952.02937		217.58600		875.00000 
 43692.65567		 305.27265			43387.38302		66.69400		324.00000 
 43692.65567		 740.62630			42952.02937		217.58600		875.00000 
 43692.65567		 305.27265			43387.38302		66.69400		324.00000 
 43692.65567		 740.62630			42952.02937		217.58600		875.00000 
 43692.65567		 305.27265			43387.38302		66.69400		324.00000 
 43692.65567		 740.62630			42952.02937		217.58600		875.00000 
 43692.65567		 305.27265			43387.38302		66.69400		324.00000 
 43692.65567		 740.62630			42952.02937		217.58600		875.00000 
 43692.65567		 305.27265			43387.38302		66.69400		324.00000 
 43692.65567		 740.62630			42952.02937		217.58600		875.00000 
 43692.65567		 305.27265			43387.38302		66.69400		324.00000 
 43692.65567		 740.62630			42952.02937		217.58600		875.00000 
 43692.65567		 305.27265			43387.38302		66.69400		324.00000 
 43692.65567		 740.62630			42952.02937		219.89400		875.00000 
 43692.65567		 305.27265			43387.38302		66.69400		324.00000 
 43692.65567		 740.62630			42952.02937		219.89400		875.00000 
 43692.65567		 305.27265			43387.38302		66.69400		324.00000 
 43692.65567		 740.62630			42952.02937		219.89400		875.00000 
 43692.65567		 305.27265			43387.38302		66.69400		324.00000 
 43692.65567		 740.62630			42952.02937		219.89400		875.00000 
 43692.65567		 305.27265			43387.38302		66.69400		324.00000 
 43692.65567		 740.62630			42952.02937		219.89400		875.00000 
 43692.65567		 305.27265			43387.38302		66.69400		324.00000 
 43692.65567		 740.62630			42952.02937		219.89400		875.00000 
 43692.65567		 305.27265			43387.38302		66.69400		324.00000 
 43692.65567		 740.62630			42952.02937		219.89400		875.00000 
 43692.65567		 305.27265			43387.38302		66.69400		324.00000 
 43692.65567		 740.62630			42952.02937		219.89400		875.00000 
 43692.65567		 305.27265			43387.38302		66.69400		324.00000 
 43692.65567		 740.62630			42952.02937		219.89400		875.00000 
 43692.65567		 305.27265			43387.38302		66.69400		324.00000 
 43692.65567		 740.62630			42952.02937		219.89400		875.00000 
 43692.65567		 305.27265			43387.38302		66.69400		324.00000 
 43692.65567		 740.62630			42952.02937		219.89400		875.00000 
 43692.65567		 305.27265			43387.38302		66.69400		324.00000 
 43692.65567		 740.62630			42952.02937		219.89400		875.00000 
 43692.65567		 305.27265			43387.38302		66.69400		324.00000 
 43692.65567		 740.62630			42952.02937		219.89400		875.00000 
 43692.65567		 305.27265			43387.38302		66.69400		324.00000 
 43692.65567		 740.62630			42952.02937		219.89400		875.00000 
 43692.65567		 305.27265			43387.38302		66.69400		324.00000 
 43692.65567		 740.62630			42952.02937		219.89400		875.00000 
 43692.65567		 305.27265			43387.38302		66.69400		324.00000 
 43692.65567		 740.62630			42952.02937		219.89400		875.00000 
 43692.65567		 305.27265			43387.38302		66.69400		324.00000 
 43692.65567		 740.62630			42952.02937		219.89400		875.00000 
 43692.65567		 305.27265			43387.38302		66.69400		324.00000 
 43692.65567		 740.62630			42952.02937		219.89400		875.00000 
 43692.65567		 305.27265			43387.38302		66.69400		324.00000 
 43692.65567		 740.62630			42952.02937		219.89400		875.00000 
 43692.65567		 305.27265			43387.38302		66.69400		324.00000 
 43692.65567		 740.62630			42952.02937		219.89400		875.00000 
 43692.65567		 305.27265			43387.38302		66.69400		324.00000 
 43692.65567		 740.62630			42952.02937		219.89400		875.00000 
 43692.65567		 305.27265			43387.38302		66.69400		324.00000 
 43692.65567		 740.62630			42952.02937		219.89400		875.00000 
 43692.65567		 305.27265			43387.38302		66.69400		324.00000 
 43692.65567		 740.62630			42952.02937		219.89400		875.00000 
 43692.65567		 305.27265			43387.38302		66.69400		324.00000 
 43692.65567		 740.62630			42952.02937		219.89400		875.00000 
 43692.65567		 305.27265			43387.38302		66.69400		324.00000 
 43692.65567		 740.62630			42952.02937		219.89400		875.00000 
 43692.65567		 305.27265			43387.38302		66.69400		324.00000 
 43692.65567		 740.62630			42952.02937		219.89400		875.00000 
 43692.65567		 305.27265			43387.38302		66.69400		324.00000 
 43692.65567		 740.62630			42952.02937		219.89400		875.00000 
 43692.65567		 305.27265			43387.38302		66.69400		324.00000 
 43692.65567		 740.62630			42952.02937		219.89400		875.00000 
 43692.65567		 305.27265			43387.38302		66.69400		324.00000 
 43692.65567		 740.62630			42952.02937		219.89400		875.00000 
 43692.65567		 305.27265			43387.38302		66.69400		324.00000 
 43692.65567		 740.62630			42952.02937		219.89400		875.00000 
 43692.65567		 305.27265			43387.38302		66.69400		324.00000 
 43692.65567		 740.62630			42952.02937		219.89400		875.00000 
 43692.65567		 305.27265			43387.38302		66.69400		324.00000 
 43692.65567		 740.62630			42952.02937		219.89400		875.00000 
 43692.65567		 305.27265			43387.38302		66.69400		324.00000 
 43692.65567		 740.62630			42952.02937		219.89400		875.00000 
 43692.65567		 305.27265			43387.38302		66.69400		324.00000 
 43692.65567		 740.62630			42952.02937		219.89400		875.00000 
 43692.65567		 305.27265			43387.38302		66.69400		324.00000 
 43692.65567		 740.62630			42952.02937		219.89400		875.00000 
 43692.65567		 305.27265			43387.38302		66.69400		324.00000 
 43692.65567		 740.62630			42952.02937		219.89400		875.00000 
 43692.65567		 305.27265			43387.38302		66.69400		324.00000 
 43692.65567		 740.62630			42952.02937		219.89400		875.00000 
 43692.65567		 305.27265			43387.38302		66.69400		324.00000 
 43692.65567		 740.62630			42952.02937		219.89400		875.00000 
 43692.65567		 305.27265			43387.38302		66.69400		324.00000 
 43692.65567		 740.62630			42952.02937		219.89400		875.00000 
 43692.65567		 305.27265			43387.38302		66.69400		324.00000 
 43692.65567		 740.62630			42952.02937		219.89400		875.00000 
 43692.65567		 305.27265			43387.38302		66.69400		324.00000 
 43692.65567		 740.62630			42952.02937		219.89400		875.00000 
 43692.65567		 305.27265			43387.38302		66.69400		324.00000 
 43692.65567		 740.62630			42952.02937		219.89400		875.00000 
 43692.65567		 305.27265			43387.38302		66.69400		324.00000 
 43692.65567		 740.62630			42952.02937		219.89400		875.00000 
 43692.65567		 305.27265			43387.38302		66.69400		324.00000 
 43692.65567		 740.62630			42952.02937		219.89400		875.00000 
 43692.65567		 305.27265			43387.38302		66.69400		324.00000 
 43692.65567		 740.62630			42952.02937		219.89400		875.00000 
 43692.65567		 305.27265			43387.38302		66.69400		324.00000 
 43692.65567		 740.62630			42952.02937		219.89400		875.00000 
 43692.65567		 305.27265			43387.38302		66.69400		324.00000 
 43692.65567		 740.62630			42952.02937		219.89400		875.00000 
 43692.65567		 305.27265			43387.38302		66.69400		324.00000 
 43692.65567		 740.62630			42952.02937		219.89400		875.00000 
 43692.65567		 305.27265			43387.38302		66.69400		324.00000 
 43692.65567		 740.62630			42952.02937		219.89400		875.00000 
 43692.65567		 305.27265			43387.38302		66.69400		324.00000 
 43692.65567		 740.62630			42952.02937		219.89400		875.00000 
 43692.65567		 305.27265			43387.38302		66.69400		324.00000 
 43692.65567		 740.62630			42952.02937		219.89400		875.00000 
 43692.65567		 305.27265			43387.38302		66.69400		324.00000 
 43692.65567		 740.62630			42952.02937		219.89400		875.00000 
 43692.65567		 305.27265			43387.38302		66.69400		324.00000 
 43692.65567		 740.62630			42952.02937		219.89400		875.00000 
 43692.65567		 305.27265			43387.38302		66.69400		324.00000 
 43692.65567		 740.62630			42952.02937		219.89400		875.00000 
 43692.65567		 305.27265			43387.38302		66.69400		324.00000 
 43692.65567		 740.62630			42952.02937		219.89400		875.00000 
 43692.65567		 305.27265			43387.38302		66.69400		324.00000 
 43692.65567		 740.62630			42952.02937		219.89400		875.00000 
 43692.65567		 305.27265			43387.38302		66.69400		324.00000 
 43692.65567		 740.62630			42952.02937		219.89400		875.00000 
 43692.65567		 305.27265			43387.38302		66.69400		324.00000 
 43692.65567		 740.62630			42952.02937		219.89400		875.00000 
 43692.65567		 305.27265			43387.38302		66.69400		324.00000 
 43692.65567		 740.62630			42952.02937		219.89400		875.00000 
 43692.65567		 305.27265			43387.38302		66.69400		324.00000 
 43692.65567		 740.62630			42952.02937		219.89400		875.00000 
 43692.65567		 305.27265			43387.38302		66.69400		324.00000 
 43692.65567		 740.62630			42952.02937		219.89400		875.00000 
 43692.65567		 305.27265			43387.38302		66.69400		324.00000 
 43692.65567		 740.62630			42952.02937		219.89400		875.00000 
 43692.65567		 305.27265			43387.38302		66.69400		324.00000 
 43692.65567		 740.62630			42952.02937		219.89400		875.00000 
 43692.65567		 305.27265			43387.38302		66.69400		324.00000 
 43692.65567		 740.62630			42952.02937		219.89400		875.00000 
 43692.65567		 305.27265			43387.38302		66.69400		324.00000 
 43692.65567		 740.62630			42952.02937		220.08400		875.00000 
 43692.65567		 305.27265			43387.38302		66.69400		324.00000 
 43692.65567		 740.62630			42952.02937		220.08400		875.00000 
 43692.65567		 305.27265			43387.38302		66.69400		324.00000 
 43692.65567		 740.62630			42952.02937		220.08400		875.00000 
 43692.65567		 305.27265			43387.38302		66.69400		324.00000 
 43692.65567		 740.62630			42952.02937		220.08400		875.00000 
 43692.65567		 305.27265			43387.38302		66.69400		324.00000 
 43692.65567		 740.62630			42952.02937		220.08400		875.00000 
 43692.65567		 305.27265			43387.38302		66.69400		324.00000 
 43692.65567		 740.62630			42952.02937		220.08400		875.00000 
 43692.65567		 305.27265			43387.38302		66.69400		324.00000 
 43692.65567		 740.62630			42952.02937		220.08400		875.00000 
 43692.65567		 305.27265			43387.38302		66.69400		324.00000 
 43692.65567		 740.62630			42952.02937		220.08400		875.00000 
 43692.65567		 305.27265			43387.38302		66.69400		324.00000 
 43692.65567		 740.62630			42952.02937		220.08400		875.00000 
 43692.65567		 305.27265			43387.38302		66.69400		324.00000 
 43692.65567		 740.62630			42952.02937		220.08400		875.00000 
 43692.65567		 305.27265			43387.38302		66.69400		324.00000 
 43692.65567		 740.62630			42952.02937		220.08400		875.00000 
 43692.65567		 305.27265			43387.38302		66.69400		324.00000 
 43692.65567		 740.62630			42952.02937		220.08400		875.00000 
 43692.65567		 305.27265			43387.38302		66.69400		324.00000 
 43692.65567		 740.62630			42952.02937		220.08400		875.00000 
 43692.65567		 305.27265			43387.38302		66.69400		324.00000 
 43692.65567		 740.62630			42952.02937		220.08400		875.00000 
 43692.65567		 305.27265			43387.38302		66.69400		324.00000 
 43692.65567		 740.62630			42952.02937		220.08400		875.00000 
 43692.65567		 305.27265			43387.38302		66.69400		324.00000 
 43692.65567		 740.62630			42952.02937		220.08400		875.00000 
 43692.65567		 305.27265			43387.38302		66.69400		324.00000 
 43692.65567		 740.62630			42952.02937		220.08400		875.00000 
 43692.65567		 305.27265			43387.38302		66.69400		324.00000 
 43692.65567		 740.62630			42952.02937		220.08400		875.00000 
 43692.65567		 305.27265			43387.38302		66.69400		324.00000 
 43692.65567		 740.62630			42952.02937		220.08400		875.00000 
 43692.65567		 305.27265			43387.38302		66.69400		324.00000 
 43692.65567		 740.62630			42952.02937		220.08400		875.00000 
 43692.65567		 305.27265			43387.38302		66.69400		324.00000 
 43692.65567		 740.62630			42952.02937		220.08400		875.00000 
 43692.65567		 305.27265			43387.38302		66.69400		324.00000 
 43692.65567		 740.62630			42952.02937		220.08400		875.00000 
 43692.65567		 305.27265			43387.38302		66.69400		324.00000 
 43692.65567		 740.62630			42952.02937		220.08400		875.00000 
 43692.65567		 305.27265			43387.38302		66.69400		324.00000 
 43692.65567		 740.62630			42952.02937		220.08400		875.00000 
 43692.65567		 305.27265			43387.38302		66.69400		324.00000 
 43692.65567		 740.62630			42952.02937		220.08400		875.00000 
 43692.65567		 305.27265			43387.38302		66.69400		324.00000 
 43692.65567		 740.62630			42952.02937		220.08400		875.00000 
 43692.65567		 305.27265			43387.38302		66.69400		324.00000 
 43692.65567		 740.62630			42952.02937		220.08400		875.00000 
 43692.65567		 305.27265			43387.38302		66.69400		324.00000 
 43692.65567		 740.62630			42952.02937		220.08400		875.00000 
 43692.65567		 305.27265			43387.38302		66.69400		324.00000 
 43692.65567		 740.62630			42952.02937		220.08400		875.00000 
 43692.65567		 305.27265			43387.38302		66.69400		324.00000 
 43692.65567		 740.62630			42952.02937		220.08400		875.00000 
 43692.65567		 305.27265			43387.38302		66.69400		324.00000 
 43692.65567		 740.62630			42952.02937		220.08400		875.00000 
 43692.65567		 305.27265			43387.38302		66.69400		324.00000 
 43692.65567		 740.62630			42952.02937		220.08400		875.00000 
 43692.65567		 305.27265			43387.38302		66.69400		324.00000 
 43692.65567		 740.62630			42952.02937		220.08400		875.00000 
 43692.65567		 305.27265			43387.38302		66.69400		324.00000 
 43692.65567		 740.62630			42952.02937		220.08400		875.00000 
 43692.65567		 305.27265			43387.38302		66.69400		324.00000 
 43692.65567		 740.62630			42952.02937		220.08400		875.00000 
 43692.65567		 305.27265			43387.38302		66.69400		324.00000 
 43692.65567		 740.62630			42952.02937		220.08400		875.00000 
 43692.65567		 305.27265			43387.38302		66.69400		324.00000 
 43692.65567		 740.62630			42952.02937		220.08400		875.00000 
 43692.65567		 305.27265			43387.38302		66.69400		324.00000 
 43692.65567		 740.62630			42952.02937		220.08400		875.00000 
 43692.65567		 305.27265			43387.38302		66.69400		324.00000 
 43692.65567		 740.62630			42952.02937		220.08400		875.00000 
 43692.65567		 305.27265			43387.38302		66.69400		324.00000 
 43692.65567		 740.62630			42952.02937		220.08400		875.00000 
 43692.65567		 305.27265			43387.38302		66.69400		324.00000 
 43692.65567		 740.62630			42952.02937		220.08400		875.00000 
 43692.65567		 305.27265			43387.38302		66.69400		324.00000 
 43692.65567		 740.62630			42952.02937		220.08400		875.00000 
 43692.65567		 305.27265			43387.38302		66.69400		324.00000 
 43692.65567		 740.62630			42952.02937		220.08400		875.00000 
 43692.65567		 305.27265			43387.38302		66.69400		324.00000 
 43692.65567		 740.62630			42952.02937		220.08400		875.00000 
 43692.65567		 305.27265			43387.38302		66.69400		324.00000 
 43692.65567		 740.62630			42952.02937		220.08400		875.00000 
 43692.65567		 305.27265			43387.38302		66.69400		324.00000 
 43692.65567		 740.62630			42952.02937		220.08400		875.00000 
 43692.65567		 305.27265			43387.38302		66.69400		324.00000 
 43692.65567		 740.62630			42952.02937		220.08400		875.00000 
 43692.65567		 305.27265			43387.38302		66.69400		324.00000 
 43692.65567		 740.62630			42952.02937		220.08400		875.00000 
 43692.65567		 305.27265			43387.38302		66.69400		324.00000 
 43692.65567		 740.62630			42952.02937		220.08400		875.00000 
 43692.65567		 305.27265			43387.38302		66.69400		324.00000 
 43692.65567		 740.62630			42952.02937		220.08400		875.00000 
 43692.65567		 305.27265			43387.38302		66.69400		324.00000 
 43692.65567		 740.62630			42952.02937		220.08400		875.00000 
 43692.65567		 305.27265			43387.38302		66.69400		324.00000 
 43692.65567		 740.62630			42952.02937		220.08400		875.00000 
 43692.65567		 305.27265			43387.38302		66.69400		324.00000 
 43692.65567		 740.62630			42952.02937		220.08400		875.00000 
 43692.65567		 305.27265			43387.38302		66.69400		324.00000 
 43692.65567		 740.62630			42952.02937		220.08400		875.00000 
 43692.65567		 305.27265			43387.38302		66.69400		324.00000 
 43692.65567		 740.62630			42952.02937		220.08400		875.00000 
 43692.65567		 305.27265			43387.38302		66.69400		324.00000 
 43692.65567		 740.62630			42952.02937		220.08400		875.00000 
 43692.65567		 305.27265			43387.38302		66.69400		324.00000 
 43692.65567		 740.62630			42952.02937		220.08400		875.00000 
 43692.65567		 305.27265			43387.38302		66.69400		324.00000 
 43692.65567		 740.62630			42952.02937		220.08400		875.00000 
 43692.65567		 305.27265			43387.38302		66.69400		324.00000 
 43692.65567		 740.62630			42952.02937		220.08400		875.00000 
 43692.65567		 305.27265			43387.38302		66.69400		324.00000 
 43692.65567		 740.62630			42952.02937		220.08400		875.00000 
 43692.65567		 305.27265			43387.38302		66.69400		324.00000 
 43692.65567		 740.62630			42952.02937		220.08400		875.00000 
 43692.65567		 305.27265			43387.38302		66.69400		324.00000 
 43692.65567		 740.62630			42952.02937		220.08400		875.00000 
 43692.65567		 305.27265			43387.38302		66.69400		324.00000 
 43692.65567		 740.62630			42952.02937		220.08400		875.00000 
 43692.65567		 305.27265			43387.38302		66.69400		324.00000 
 43692.65567		 740.62630			42952.02937		220.08400		875.00000 
 43692.65567		 305.27265			43387.38302		66.69400		324.00000 
 43692.65567		 740.62630			42952.02937		219.66200		875.00000 
 43692.65567		 305.27265			43387.38302		66.69400		324.00000 
 43692.65567		 740.62630			42952.02937		219.66200		875.00000 
 43692.65567		 305.27265			43387.38302		66.69400		324.00000 
 43692.65567		 740.62630			42952.02937		219.66200		875.00000 
 43692.65567		 305.27265			43387.38302		66.69400		324.00000 
 43692.65567		 740.62630			42952.02937		219.66200		875.00000 
 43692.65567		 305.27265			43387.38302		66.69400		324.00000 
 43692.65567		 740.62630			42952.02937		219.66200		875.00000 
 43692.65567		 305.27265			43387.38302		66.69400		324.00000 
 43692.65567		 740.62630			42952.02937		219.66200		875.00000 
 43692.65567		 305.27265			43387.38302		66.69400		324.00000 
 43692.65567		 740.62630			42952.02937		219.66200		875.00000 
 43692.65567		 305.27265			43387.38302		66.69400		324.00000 
 43692.65567		 740.62630			42952.02937		219.66200		875.00000 
 43692.65567		 305.27265			43387.38302		66.69400		324.00000 
 43692.65567		 740.62630			42952.02937		219.66200		875.00000 
 43692.65567		 305.27265			43387.38302		66.69400		324.00000 
 43692.65567		 740.62630			42952.02937		219.66200		875.00000 
 43692.65567		 305.27265			43387.38302		66.69400		324.00000 
 43692.65567		 740.62630			42952.02937		219.66200		875.00000 
 43692.65567		 305.27265			43387.38302		66.69400		324.00000 
 43692.65567		 740.62630			42952.02937		219.66200		875.00000 
 43692.65567		 305.27265			43387.38302		66.69400		324.00000 
 43692.65567		 740.62630			42952.02937		219.66200		875.00000 
 43692.65567		 305.27265			43387.38302		66.69400		324.00000 
 43692.65567		 740.62630			42952.02937		219.66200		875.00000 
 43692.65567		 305.27265			43387.38302		66.69400		324.00000 
 43692.65567		 740.62630			42952.02937		219.66200		875.00000 
 43692.65567		 305.27265			43387.38302		66.69400		324.00000 
 43692.65567		 740.62630			42952.02937		219.66200		875.00000 
 43692.65567		 305.27265			43387.38302		66.69400		324.00000 
 43692.65567		 740.62630			42952.02937		219.66200		875.00000 
 43692.65567		 305.27265			43387.38302		66.69400		324.00000 
 43692.65567		 740.62630			42952.02937		219.66200		875.00000 
 43692.65567		 305.27265			43387.38302		66.69400		324.00000 
 43692.65567		 740.62630			42952.02937		219.66200		875.00000 
 43692.65567		 305.27265			43387.38302		66.69400		324.00000 
 43692.65567		 740.62630			42952.02937		219.66200		875.00000 
 43692.65567		 305.27265			43387.38302		66.69400		324.00000 
 43692.65567		 740.62630			42952.02937		219.66200		875.00000 
 43692.65567		 305.27265			43387.38302		66.69400		324.00000 
 43692.65567		 740.62630			42952.02937		219.66200		875.00000 
 43692.65567		 305.27265			43387.38302		66.69400		324.00000 
 43692.65567		 740.62630			42952.02937		219.66200		875.00000 
 43692.65567		 305.27265			43387.38302		66.69400		324.00000 
 43692.65567		 740.62630			42952.02937		219.66200		875.00000 
 43692.65567		 305.27265			43387.38302		66.69400		324.00000 
 43692.65567		 740.62630			42952.02937		219.66200		875.00000 
 43692.65567		 305.27265			43387.38302		66.69400		324.00000 
 43692.65567		 740.62630			42952.02937		219.66200		875.00000 
 43692.65567		 305.27265			43387.38302		66.69400		324.00000 
 43692.65567		 740.62630			42952.02937		219.66200		875.00000 
 43692.65567		 305.27265			43387.38302		66.69400		324.00000 
 43692.65567		 740.62630			42952.02937		219.66200		875.00000 
 43692.65567		 305.27265			43387.38302		66.69400		324.00000 
 43692.65567		 740.62630			42952.02937		219.66200		875.00000 
 43692.65567		 305.27265			43387.38302		66.69400		324.00000 
 43692.65567		 740.62630			42952.02937		219.66200		875.00000 
 43692.65567		 305.27265			43387.38302		66.69400		324.00000 
 43692.65567		 740.62630			42952.02937		219.66200		875.00000 
 43692.65567		 305.27265			43387.38302		66.69400		324.00000 
 43692.65567		 740.62630			42952.02937		219.66200		875.00000 
 43692.65567		 305.27265			43387.38302		66.69400		324.00000 
 43692.65567		 740.62630			42952.02937		219.66200		875.00000 
 43692.65567		 305.27265			43387.38302		66.69400		324.00000 
 43692.65567		 740.62630			42952.02937		219.66200		875.00000 
 43692.65567		 305.27265			43387.38302		66.69400		324.00000 
 43692.65567		 740.62630			42952.02937		219.66200		875.00000 
 43692.65567		 305.27265			43387.38302		66.69400		324.00000 
 43692.65567		 740.62630			42952.02937		219.66200		875.00000 
 43692.65567		 305.27265			43387.38302		66.69400		324.00000 
 43692.65567		 740.62630			42952.02937		219.66200		875.00000 
 43692.65567		 305.27265			43387.38302		66.69400		324.00000 
 43692.65567		 740.62630			42952.02937		219.66200		875.00000 
 43692.65567		 305.27265			43387.38302		66.69400		324.00000 
 43692.65567		 740.62630			42952.02937		219.66200		875.00000 
 43692.65567		 305.27265			43387.38302		66.69400		324.00000 
 43692.65567		 740.62630			42952.02937		219.66200		875.00000 
 43692.65567		 305.27265			43387.38302		66.69400		324.00000 
 43692.65567		 740.62630			42952.02937		219.66200		875.00000 
 43692.65567		 305.27265			43387.38302		66.69400		324.00000 
 43692.65567		 740.62630			42952.02937		219.66200		875.00000 
 43692.65567		 305.27265			43387.38302		66.69400		324.00000 
 43692.65567		 740.62630			42952.02937		219.66200		875.00000 
 43692.65567		 305.27265			43387.38302		66.69400		324.00000 
 43692.65567		 740.62630			42952.02937		219.66200		875.00000 
 43692.65567		 305.27265			43387.38302		66.69400		324.00000 
 43692.65567		 740.62630			42952.02937		219.66200		875.00000 
 43692.65567		 305.27265			43387.38302		66.69400		324.00000 
 43692.65567		 740.62630			42952.02937		219.66200		875.00000 
 43692.65567		 305.27265			43387.38302		66.69400		324.00000 
 43692.65567		 740.62630			42952.02937		219.66200		875.00000 
 43692.65567		 305.27265			43387.38302		66.69400		324.00000 
 43692.65567		 740.62630			42952.02937		219.66200		875.00000 
 43692.65567		 305.27265			43387.38302		66.69400		324.00000 
 43692.65567		 740.62630			42952.02937		219.66200		875.00000 
 43692.65567		 305.27265			43387.38302		66.69400		324.00000 
 43692.65567		 740.62630			42952.02937		219.66200		875.00000 
 43692.65567		 305.27265			43387.38302		66.69400		324.00000 
 43692.65567		 740.62630			42952.02937		219.66200		875.00000 
 43692.65567		 305.27265			43387.38302		66.69400		324.00000 
 43692.65567		 740.62630			42952.02937		219.66200		875.00000 
 43692.65567		 305.27265			43387.38302		66.69400		324.00000 
 43692.65567		 740.62630			42952.02937		219.66200		875.00000 
 43692.65567		 305.27265			43387.38302		66.69400		324.00000 
 43692.65567		 740.62630			42952.02937		219.66200		875.00000 
 43692.65567		 305.27265			43387.38302		66.69400		324.00000 
 43692.65567		 740.62630			42952.02937		219.66200		875.00000 
 43692.65567		 305.27265			43387.38302		66.69400		324.00000 
 43692.65567		 740.62630			42952.02937		219.66200		875.00000 
 43692.65567		 305.27265			43387.38302		66.69400		324.00000 
 43692.65567		 740.62630			42952.02937		219.66200		875.00000 
 43692.65567		 305.27265			43387.38302		66.69400		324.00000 
 43692.65567		 740.62630			42952.02937		219.66200		875.00000 
 43692.65567		 305.27265			43387.38302		66.69400		324.00000 
 43692.65567		 740.62630			42952.02937		219.66200		875.00000 
 43692.65567		 305.27265			43387.38302		66.69400		324.00000 
 43692.65567		 740.62630			42952.02937		219.66200		875.00000 
 43692.65567		 305.27265			43387.38302		66.69400		324.00000 
 43692.65567		 740.62630			42952.02937		219.66200		875.00000 
 43692.65567		 305.27265			43387.38302		66.69400		324.00000 
 43692.65567		 740.62630			42952.02937		219.66200		875.00000 
 43692.65567		 305.27265			43387.38302		66.69400		324.00000 
 43692.65567		 740.62630			42952.02937		219.66200		875.00000 
 43692.65567		 305.27265			43387.38302		66.69400		324.00000 
 43692.65567		 740.62630			42952.02937		219.66200		875.00000 
 43692.65567		 305.27265			43387.38302		66.69400		324.00000 
 43692.65567		 740.62630			42952.02937		219.06200		875.00000 
 43692.65567		 305.27265			43387.38302		66.69400		324.00000 
 43692.65567		 740.62630			42952.02937		219.06200		875.00000 
 43692.65567		 305.27265			43387.38302		66.69400		324.00000 
 43692.65567		 740.62630			42952.02937		219.06200		875.00000 
 43692.65567		 305.27265			43387.38302		66.69400		324.00000 
 43692.65567		 740.62630			42952.02937		219.06200		875.00000 
 43692.65567		 305.27265			43387.38302		66.69400		324.00000 
 43692.65567		 740.62630			42952.02937		219.06200		875.00000 
 43692.65567		 305.27265			43387.38302		66.69400		324.00000 
 43692.65567		 740.62630			42952.02937		219.06200		875.00000 
 43692.65567		 305.27265			43387.38302		66.69400		324.00000 
 43692.65567		 740.62630			42952.02937		219.06200		875.00000 
 43692.65567		 305.27265			43387.38302		66.69400		324.00000 
 43692.65567		 740.62630			42952.02937		219.06200		875.00000 
 43692.65567		 305.27265			43387.38302		66.69400		324.00000 
 43692.65567		 740.62630			42952.02937		219.06200		875.00000 
 43692.65567		 305.27265			43387.38302		66.69400		324.00000 
 43692.65567		 740.62630			42952.02937		219.06200		875.00000 
 43692.65567		 305.27265			43387.38302		66.69400		324.00000 
 43692.65567		 740.62630			42952.02937		219.06200		875.00000 
 43692.65567		 305.27265			43387.38302		66.69400		324.00000 
 43692.65567		 740.62630			42952.02937		219.06200		875.00000 
 43692.65567		 305.27265			43387.38302		66.69400		324.00000 
 43692.65567		 740.62630			42952.02937		219.06200		875.00000 
 43692.65567		 305.27265			43387.38302		66.69400		324.00000 
 43692.65567		 740.62630			42952.02937		219.06200		875.00000 
 43692.65567		 305.27265			43387.38302		66.69400		324.00000 
 43692.65567		 740.62630			42952.02937		219.06200		875.00000 
 43692.65567		 305.27265			43387.38302		66.69400		324.00000 
 43692.65567		 740.62630			42952.02937		219.06200		875.00000 
 43692.65567		 305.27265			43387.38302		66.69400		324.00000 
 43692.65567		 740.62630			42952.02937		219.06200		875.00000 
 43692.65567		 305.27265			43387.38302		66.69400		324.00000 
 43692.65567		 740.62630			42952.02937		219.06200		875.00000 
 43692.65567		 305.27265			43387.38302		66.69400		324.00000 
 43692.65567		 740.62630			42952.02937		219.06200		875.00000 
 43692.65567		 305.27265			43387.38302		66.69400		324.00000 
 43692.65567		 740.62630			42952.02937		219.06200		875.00000 
 43692.65567		 305.27265			43387.38302		66.69400		324.00000 
 43692.65567		 740.62630			42952.02937		219.06200		875.00000 
 43692.65567		 305.27265			43387.38302		66.69400		324.00000 
 43692.65567		 740.62630			42952.02937		219.06200		875.00000 
 43692.65567		 305.27265			43387.38302		66.69400		324.00000 
 43692.65567		 740.62630			42952.02937		219.06200		875.00000 
 43692.65567		 305.27265			43387.38302		66.69400		324.00000 
 43692.65567		 740.62630			42952.02937		219.06200		875.00000 
 43692.65567		 305.27265			43387.38302		66.69400		324.00000 
 43692.65567		 740.62630			42952.02937		219.06200		875.00000 
 43692.65567		 305.27265			43387.38302		66.69400		324.00000 
 43692.65567		 740.62630			42952.02937		219.06200		875.00000 
 43692.65567		 305.27265			43387.38302		66.69400		324.00000 
 43692.65567		 740.62630			42952.02937		219.06200		875.00000 
 43692.65567		 305.27265			43387.38302		66.69400		324.00000 
 43692.65567		 740.62630			42952.02937		219.06200		875.00000 
 43692.65567		 305.27265			43387.38302		66.69400		324.00000 
 43692.65567		 740.62630			42952.02937		219.06200		875.00000 
 43692.65567		 305.27265			43387.38302		66.69400		324.00000 
 43692.65567		 740.62630			42952.02937		219.06200		875.00000 
 43692.65567		 305.27265			43387.38302		66.69400		324.00000 
 43692.65567		 740.62630			42952.02937		219.06200		875.00000 
 43692.65567		 305.27265			43387.38302		66.69400		324.00000 
 43692.65567		 740.62630			42952.02937		219.06200		875.00000 
 43692.65567		 305.27265			43387.38302		66.69400		324.00000 
 43692.65567		 740.62630			42952.02937		219.06200		875.00000 
 43692.65567		 305.27265			43387.38302		66.69400		324.00000 
 43692.65567		 740.62630			42952.02937		219.06200		875.00000 
 43692.65567		 305.27265			43387.38302		66.69400		324.00000 
 43692.65567		 740.62630			42952.02937		219.06200		875.00000 
 43692.65567		 305.27265			43387.38302		66.69400		324.00000 
 43692.65567		 740.62630			42952.02937		219.06200		875.00000 
 43692.65567		 305.27265			43387.38302		66.69400		324.00000 
 43692.65567		 740.62630			42952.02937		219.06200		875.00000 
 43692.65567		 305.27265			43387.38302		66.69400		324.00000 
 43692.65567		 740.62630			42952.02937		219.06200		875.00000 
 43692.65567		 305.27265			43387.38302		66.69400		324.00000 
 43692.65567		 740.62630			42952.02937		219.06200		875.00000 
 43692.65567		 305.27265			43387.38302		66.69400		324.00000 
 43692.65567		 740.62630			42952.02937		219.06200		875.00000 
 43692.65567		 305.27265			43387.38302		66.69400		324.00000 
 43692.65567		 740.62630			42952.02937		219.06200		875.00000 
 43692.65567		 305.27265			43387.38302		66.69400		324.00000 
 43692.65567		 740.62630			42952.02937		219.06200		875.00000 
 43692.65567		 305.27265			43387.38302		66.69400		324.00000 
 43692.65567		 740.62630			42952.02937		219.06200		875.00000 
 43692.65567		 305.27265			43387.38302		66.69400		324.00000 
 43692.65567		 740.62630			42952.02937		219.06200		875.00000 
 43692.65567		 305.27265			43387.38302		66.69400		324.00000 
 43692.65567		 740.62630			42952.02937		219.06200		875.00000 
 43692.65567		 305.27265			43387.38302		66.69400		324.00000 
 43692.65567		 740.62630			42952.02937		219.06200		875.00000 
 43692.65567		 305.27265			43387.38302		66.69400		324.00000 
 43692.65567		 740.62630			42952.02937		219.06200		875.00000 
 43692.65567		 305.27265			43387.38302		66.69400		324.00000 
 43692.65567		 740.62630			42952.02937		219.06200		875.00000 
 43692.65567		 305.27265			43387.38302		66.69400		324.00000 
 43692.65567		 740.62630			42952.02937		219.06200		875.00000 
 43692.65567		 305.27265			43387.38302		66.69400		324.00000 
 43692.65567		 740.62630			42952.02937		219.06200		875.00000 
 43692.65567		 305.27265			43387.38302		66.69400		324.00000 
 43692.65567		 740.62630			42952.02937		219.06200		875.00000 
 43692.65567		 305.27265			43387.38302		66.69400		324.00000 
 43692.65567		 740.62630			42952.02937		219.06200		875.00000 
 43692.65567		 305.27265			43387.38302		66.69400		324.00000 
 43692.65567		 740.62630			42952.02937		219.06200		875.00000 
 43692.65567		 305.27265			43387.38302		66.69400		324.00000 
 43692.65567		 740.62630			42952.02937		219.06200		875.00000 
 43692.65567		 305.27265			43387.38302		66.69400		324.00000 
 43692.65567		 740.62630			42952.02937		219.06200		875.00000 
 43692.65567		 305.27265			43387.38302		66.69400		324.00000 
 43692.65567		 740.62630			42952.02937		219.06200		875.00000 
 43692.65567		 305.27265			43387.38302		66.69400		324.00000 
 43692.65567		 740.62630			42952.02937		219.06200		875.00000 
 43692.65567		 305.27265			43387.38302		66.69400		324.00000 
 43692.65567		 740.62630			42952.02937		219.06200		875.00000 
 43692.65567		 305.27265			43387.38302		66.69400		324.00000 
 43692.65567		 740.62630			42952.02937		219.06200		875.00000 
 43692.65567		 305.27265			43387.38302		66.69400		324.00000 
 43692.65567		 740.62630			42952.02937		219.06200		875.00000 
 43692.65567		 305.27265			43387.38302		66.69400		324.00000 
 43692.65567		 740.62630			42952.02937		219.06200		875.00000 
 43692.65567		 305.27265			43387.38302		66.69400		324.00000 
 43692.65567		 740.62630			42952.02937		219.06200		875.00000 
 43692.65567		 305.27265			43387.38302		66.69400		324.00000 
 43692.65567		 740.62630			42952.02937		219.06200		875.00000 
 43692.65567		 305.27265			43387.38302		66.69400		324.00000 
 43692.65567		 740.62630			42952.02937		219.06200		875.00000 
 43692.65567		 305.27265			43387.38302		66.69400		324.00000 
 43692.65567		 740.62630			42952.02937		219.06200		875.00000 
 43692.65567		 305.27265			43387.38302		66.69400		324.00000 
 43692.65567		 740.62630			42952.02937		219.06200		875.00000 
 43692.65567		 305.27265			43387.38302		66.69400		324.00000 
 43692.65567		 740.62630			42952.02937		219.06200		875.00000 
 43692.65567		 305.27265			43387.38302		66.69400		324.00000 
 43692.65567		 740.62630			42952.02937		219.06200		875.00000 
 43692.65567		 305.27265			43387.38302		66.69400		324.00000 
 43692.65567		 740.62630			42952.02937		219.06200		875.00000 
 43692.65567		 305.27265			43387.38302		66.69400		324.00000 
 43692.65567		 740.62630			42952.02937		219.06200		875.00000 
 43692.65567		 305.27265			43387.38302		66.69400		324.00000 
 43692.65567		 740.62630			42952.02937		219.06200		875.00000 
 43692.65567		 305.27265			43387.38302		66.69400		324.00000 
 43692.65567		 740.62630			42952.02937		219.06200		875.00000 
 43692.65567		 305.27265			43387.38302		66.69400		324.00000 
 43692.65567		 740.62630			42952.02937		219.06200		875.00000 
 43692.65567		 305.27265			43387.38302		66.69400		324.00000 
 43692.65567		 740.62630			42952.02937		219.06200		875.00000 
 43692.65567		 305.27265			43387.38302		66.69400		324.00000 
 43692.65567		 740.62630			42952.02937		219.06200		875.00000 
 43692.65567		 305.27265			43387.38302		66.69400		324.00000 
 43692.65567		 740.62630			42952.02937		219.06200		875.00000 
 43692.65567		 305.27265			43387.38302		66.69400		324.00000 
 43692.65567		 740.62630			42952.02937		219.06200		875.00000 
 43692.65567		 305.27265			43387.38302		66.69400		324.00000 
 43692.65567		 740.62630			42952.02937		219.06200		875.00000 
 43692.65567		 305.27265			43387.38302		66.69400		324.00000 
 43692.65567		 740.62630			42952.02937		219.06200		875.00000 
 43692.65567		 305.27265			43387.38302		66.69400		324.00000 
 43692.65567		 740.62630			42952.02937		219.06200		875.00000 
 43692.65567		 305.27265			43387.38302		66.69400		324.00000 
 43692.65567		 740.62630			42952.02937		219.06200		875.00000 
 43692.65567		 305.27265			43387.38302		66.69400		324.00000 
 43692.65567		 740.62630			42952.02937		219.06200		875.00000 
 43692.65567		 305.27265			43387.38302		66.69400		324.00000 
 43692.65567		 740.62630			42952.02937		219.06200		875.00000 
 43692.65567		 305.27265			43387.38302		66.69400		324.00000 
 43692.65567		 740.62630			42952.02937		219.06200		875.00000 
 43692.65567		 305.27265			43387.38302		66.69400		324.00000 
 43692.65567		 740.62630			42952.02937		219.06200		875.00000 
 43692.65567		 305.27265			43387.38302		66.69400		324.00000 
 43692.65567		 740.62630			42952.02937		219.06200		875.00000 
 43692.65567		 305.27265			43387.38302		66.69400		324.00000 
 43692.65567		 740.62630			42952.02937		219.06200		875.00000 
 43692.65567		 305.27265			43387.38302		66.69400		324.00000 
 43692.65567		 740.62630			42952.02937		219.06200		875.00000 
 43692.65567		 305.27265			43387.38302		66.69400		324.00000 
 43692.65567		 740.62630			42952.02937		219.06200		875.00000 
 43692.65567		 305.27265			43387.38302		66.69400		324.00000 
 43692.65567		 740.62630			42952.02937		219.06200		875.00000 
 43692.65567		 305.27265			43387.38302		66.69400		324.00000 
 43692.65567		 740.62630			42952.02937		219.06200		875.00000 
 43692.65567		 305.27265			43387.38302		66.69400		324.00000 
 43692.65567		 740.62630			42952.02937		219.06200		875.00000 
 43692.65567		 305.27265			43387.38302		66.69400		324.00000 
 43692.65567		 740.62630			42952.02937		219.06200		875.00000 
 43692.65567		 305.27265			43387.38302		66.69400		324.00000 
 43692.65567		 740.62630			42952.02937		219.06200		875.00000 
 43692.65567		 305.27265			43387.38302		69.65600		324.00000 
 43692.65567		 740.62630			42952.02937		219.06200		875.00000 
 43692.65567		 305.27265			43387.38302		69.65600		324.00000 
 43692.65567		 740.62630			42952.02937		219.06200		875.00000 
 43692.65567		 305.27265			43387.38302		69.65600		324.00000 
 43692.65567		 740.62630			42952.02937		219.06200		875.00000 
 43692.65567		 305.27265			43387.38302		69.65600		324.00000 
 43692.65567		 740.62630			42952.02937		219.06200		875.00000 
 43692.65567		 305.27265			43387.38302		69.65600		324.00000 
 43692.65567		 740.62630			42952.02937		219.06200		875.00000 
 43692.65567		 305.27265			43387.38302		69.65600		324.00000 
 43692.65567		 740.62630			42952.02937		219.06200		875.00000 
 43692.65567		 305.27265			43387.38302		69.65600		324.00000 
 43692.65567		 740.62630			42952.02937		219.06200		875.00000 
 43692.65567		 305.27265			43387.38302		69.65600		324.00000 
 43692.65567		 740.62630			42952.02937		219.06200		875.00000 
 43692.65567		 305.27265			43387.38302		69.65600		324.00000 
 43692.65567		 740.62630			42952.02937		219.06200		875.00000 
 43692.65567		 305.27265			43387.38302		69.65600		324.00000 
 43692.65567		 740.62630			42952.02937		219.06200		875.00000 
 43692.65567		 305.27265			43387.38302		69.65600		324.00000 
 43692.65567		 740.62630			42952.02937		219.06200		875.00000 
 43692.65567		 305.27265			43387.38302		69.65600		324.00000 
 43692.65567		 740.62630			42952.02937		219.06200		875.00000 
 43692.65567		 305.27265			43387.38302		69.65600		324.00000 
 43692.65567		 740.62630			42952.02937		219.06200		875.00000 
 43692.65567		 305.27265			43387.38302		69.65600		324.00000 
 43692.65567		 740.62630			42952.02937		219.06200		875.00000 
 43692.65567		 305.27265			43387.38302		69.65600		324.00000 
 43692.65567		 740.62630			42952.02937		219.06200		875.00000 
 43692.65567		 305.27265			43387.38302		69.65600		324.00000 
 43692.65567		 740.62630			42952.02937		219.06200		875.00000 
 43692.65567		 305.27265			43387.38302		69.65600		324.00000 
 43692.65567		 740.62630			42952.02937		219.06200		875.00000 
 43692.65567		 305.27265			43387.38302		69.65600		324.00000 
 43692.65567		 740.62630			42952.02937		219.06200		875.00000 
 43692.65567		 305.27265			43387.38302		69.65600		324.00000 
 43692.65567		 740.62630			42952.02937		219.06200		875.00000 
 43692.65567		 305.27265			43387.38302		69.65600		324.00000 
 43692.65567		 740.62630			42952.02937		219.06200		875.00000 
 43692.65567		 305.27265			43387.38302		69.65600		324.00000 
 43692.65567		 740.62630			42952.02937		219.06200		875.00000 
 43692.65567		 305.27265			43387.38302		69.65600		324.00000 
 43692.65567		 740.62630			42952.02937		219.06200		875.00000 
 43692.65567		 305.27265			43387.38302		69.65600		324.00000 
 43692.65567		 740.62630			42952.02937		219.06200		875.00000 
 43692.65567		 305.27265			43387.38302		69.65600		324.00000 
 43692.65567		 740.62630			42952.02937		219.06200		875.00000 
 43692.65567		 305.27265			43387.38302		69.65600		324.00000 
 43692.65567		 740.62630			42952.02937		219.06200		875.00000 
 43692.65567		 305.27265			43387.38302		69.65600		324.00000 
 43692.65567		 740.62630			42952.02937		219.06200		875.00000 
 43692.65567		 305.27265			43387.38302		69.65600		324.00000 
 43692.65567		 740.62630			42952.02937		219.06200		875.00000 
 43692.65567		 305.27265			43387.38302		69.65600		324.00000 
 43692.65567		 740.62630			42952.02937		219.06200		875.00000 
 43692.65567		 305.27265			43387.38302		69.65600		324.00000 
 43692.65567		 740.62630			42952.02937		219.06200		875.00000 
 43692.65567		 305.27265			43387.38302		69.65600		324.00000 
 43692.65567		 740.62630			42952.02937		219.06200		875.00000 
 43692.65567		 305.27265			43387.38302		69.65600		324.00000 
 43692.65567		 740.62630			42952.02937		219.06200		875.00000 
 43692.65567		 305.27265			43387.38302		69.65600		324.00000 
 43692.65567		 740.62630			42952.02937		219.06200		875.00000 
 43692.65567		 305.27265			43387.38302		69.65600		324.00000 
 43692.65567		 740.62630			42952.02937		219.06200		875.00000 
 43692.65567		 305.27265			43387.38302		69.65600		324.00000 
 43692.65567		 740.62630			42952.02937		219.06200		875.00000 
 43692.65567		 305.27265			43387.38302		69.65600		324.00000 
 43692.65567		 740.62630			42952.02937		219.06200		875.00000 
 43692.65567		 305.27265			43387.38302		69.65600		324.00000 
 43692.65567		 740.62630			42952.02937		219.06200		875.00000 
 43692.65567		 305.27265			43387.38302		69.65600		324.00000 
 43692.65567		 740.62630			42952.02937		219.06200		875.00000 
 43692.65567		 305.27265			43387.38302		69.65600		324.00000 
 43692.65567		 740.62630			42952.02937		219.06200		875.00000 
 43692.65567		 305.27265			43387.38302		69.65600		324.00000 
 43692.65567		 740.62630			42952.02937		219.06200		875.00000 
 43692.65567		 305.27265			43387.38302		69.65600		324.00000 
 43692.65567		 740.62630			42952.02937		219.06200		875.00000 
 43692.65567		 305.27265			43387.38302		69.65600		324.00000 
 43692.65567		 740.62630			42952.02937		219.06200		875.00000 
 43692.65567		 305.27265			43387.38302		69.65600		324.00000 
 43692.65567		 740.62630			42952.02937		219.06200		875.00000 
 43692.65567		 305.27265			43387.38302		69.65600		324.00000 
 43692.65567		 740.62630			42952.02937		219.06200		875.00000 
 43692.65567		 305.27265			43387.38302		69.65600		324.00000 
 43692.65567		 740.62630			42952.02937		219.06200		875.00000 
 43692.65567		 305.27265			43387.38302		69.65600		324.00000 
 43692.65567		 740.62630			42952.02937		219.06200		875.00000 
 43692.65567		 305.27265			43387.38302		69.65600		324.00000 
 43692.65567		 740.62630			42952.02937		219.06200		875.00000 
 43692.65567		 305.27265			43387.38302		69.65600		324.00000 
 43692.65567		 740.62630			42952.02937		219.06200		875.00000 
 43692.65567		 305.27265			43387.38302		69.65600		324.00000 
 43692.65567		 740.62630			42952.02937		219.06200		875.00000 
 43692.65567		 305.27265			43387.38302		69.65600		324.00000 
 43692.65567		 740.62630			42952.02937		219.06200		875.00000 
 43692.65567		 305.27265			43387.38302		69.65600		324.00000 
 43692.65567		 740.62630			42952.02937		219.06200		875.00000 
 43692.65567		 305.27265			43387.38302		69.65600		324.00000 
 43692.65567		 740.62630			42952.02937		219.06200		875.00000 
 43692.65567		 305.27265			43387.38302		69.65600		324.00000 
 43692.65567		 740.62630			42952.02937		219.06200		875.00000 
 43692.65567		 305.27265			43387.38302		69.65600		324.00000 
 43692.65567		 740.62630			42952.02937		219.06200		875.00000 
 43692.65567		 305.27265			43387.38302		69.65600		324.00000 
 43692.65567		 740.62630			42952.02937		219.06200		875.00000 
 43692.65567		 305.27265			43387.38302		69.65600		324.00000 
 43692.65567		 740.62630			42952.02937		219.06200		875.00000 
 43692.65567		 305.27265			43387.38302		69.65600		324.00000 
 43692.65567		 740.62630			42952.02937		219.06200		875.00000 
 43692.65567		 305.27265			43387.38302		69.65600		324.00000 
 43692.65567		 740.62630			42952.02937		219.06200		875.00000 
 43692.65567		 305.27265			43387.38302		69.65600		324.00000 
 43692.65567		 740.62630			42952.02937		219.06200		875.00000 
 43692.65567		 305.27265			43387.38302		69.65600		324.00000 
 43692.65567		 740.62630			42952.02937		219.06200		875.00000 
 43692.65567		 305.27265			43387.38302		69.65600		324.00000 
 43692.65567		 740.62630			42952.02937		219.06200		875.00000 
 43692.65567		 305.27265			43387.38302		69.65600		324.00000 
 43692.65567		 740.62630			42952.02937		219.06200		875.00000 
 43692.65567		 305.27265			43387.38302		69.65600		324.00000 
 43692.65567		 740.62630			42952.02937		219.06200		875.00000 
 43692.65567		 305.27265			43387.38302		69.65600		324.00000 
 43692.65567		 740.62630			42952.02937		219.06200		875.00000 
 43692.65567		 305.27265			43387.38302		69.65600		324.00000 
 43692.65567		 740.62630			42952.02937		219.06200		875.00000 
 43692.65567		 305.27265			43387.38302		69.65600		324.00000 
 43692.65567		 740.62630			42952.02937		219.06200		875.00000 
 43692.65567		 305.27265			43387.38302		69.65600		324.00000 
 43692.65567		 740.62630			42952.02937		219.06200		875.00000 
 43692.65567		 305.27265			43387.38302		69.65600		324.00000 
 43692.65567		 740.62630			42952.02937		219.06200		875.00000 
 43692.65567		 305.27265			43387.38302		69.65600		324.00000 
 43692.65567		 740.62630			42952.02937		219.06200		875.00000 
 43692.65567		 305.27265			43387.38302		69.65600		324.00000 
 43692.65567		 740.62630			42952.02937		219.06200		875.00000 
 43692.65567		 305.27265			43387.38302		69.65600		324.00000 
 43692.65567		 740.62630			42952.02937		219.06200		875.00000 
 43692.65567		 305.27265			43387.38302		69.65600		324.00000 
 43692.65567		 740.62630			42952.02937		219.06200		875.00000 
 43692.65567		 305.27265			43387.38302		69.65600		324.00000 
 43692.65567		 740.62630			42952.02937		219.06200		875.00000 
 43692.65567		 305.27265			43387.38302		69.65600		324.00000 
 43692.65567		 740.62630			42952.02937		219.06200		875.00000 
 43692.65567		 305.27265			43387.38302		69.65600		324.00000 
 43692.65567		 740.62630			42952.02937		219.06200		875.00000 
 43692.65567		 305.27265			43387.38302		69.65600		324.00000 
 43692.65567		 740.62630			42952.02937		219.06200		875.00000 
 43692.65567		 305.27265			43387.38302		69.65600		324.00000 
 43692.65567		 740.62630			42952.02937		219.06200		875.00000 
 43692.65567		 305.27265			43387.38302		69.65600		324.00000 
 43692.65567		 740.62630			42952.02937		219.06200		875.00000 
 43692.65567		 305.27265			43387.38302		69.65600		324.00000 
 43692.65567		 740.62630			42952.02937		219.06200		875.00000 
 43692.65567		 305.27265			43387.38302		69.65600		324.00000 
 43692.65567		 740.62630			42952.02937		219.06200		875.00000 
 43692.65567		 305.27265			43387.38302		69.65600		324.00000 
 43692.65567		 740.62630			42952.02937		219.06200		875.00000 
 43692.65567		 305.27265			43387.38302		69.65600		324.00000 
 43692.65567		 740.62630			42952.02937		219.06200		875.00000 
 43692.65567		 305.27265			43387.38302		69.65600		324.00000 
 43692.65567		 740.62630			42952.02937		219.06200		875.00000 
 43692.65567		 305.27265			43387.38302		69.65600		324.00000 
 43692.65567		 740.62630			42952.02937		219.06200		875.00000 
 43692.65567		 305.27265			43387.38302		69.65600		324.00000 
 43692.65567		 740.62630			42952.02937		219.06200		875.00000 
 43692.65567		 305.27265			43387.38302		69.65600		324.00000 
 43692.65567		 740.62630			42952.02937		219.06200		875.00000 
 43692.65567		 305.27265			43387.38302		69.65600		324.00000 
 43692.65567		 740.62630			42952.02937		219.06200		875.00000 
 43692.65567		 305.27265			43387.38302		69.65600		324.00000 
 43692.65567		 740.62630			42952.02937		219.06200		875.00000 
 43692.65567		 305.27265			43387.38302		69.65600		324.00000 
 43692.65567		 740.62630			42952.02937		219.06200		875.00000 
 43692.65567		 305.27265			43387.38302		69.65600		324.00000 
 43692.65567		 740.62630			42952.02937		219.06200		875.00000 
 43692.65567		 305.27265			43387.38302		69.65600		324.00000 
 43692.65567		 740.62630			42952.02937		219.06200		875.00000 
 43692.65567		 305.27265			43387.38302		69.65600		324.00000 
 43692.65567		 740.62630			42952.02937		219.06200		875.00000 
 43692.65567		 305.27265			43387.38302		69.65600		324.00000 
 43692.65567		 740.62630			42952.02937		219.06200		875.00000 
 43692.65567		 305.27265			43387.38302		69.65600		324.00000 
 43692.65567		 740.62630			42952.02937		219.06200		875.00000 
 43692.65567		 305.27265			43387.38302		69.65600		324.00000 
 43692.65567		 740.62630			42952.02937		219.06200		875.00000 
 43692.65567		 305.27265			43387.38302		69.65600		324.00000 
 43692.65567		 740.62630			42952.02937		219.06200		875.00000 
 43692.65567		 305.27265			43387.38302		69.65600		324.00000 
 43692.65567		 740.62630			42952.02937		219.06200		875.00000 
 43692.65567		 305.27265			43387.38302		69.65600		324.00000 
 43692.65567		 740.62630			42952.02937		219.06200		875.00000 
 43692.65567		 305.27265			43387.38302		69.65600		324.00000 
 43692.65567		 740.62630			42952.02937		219.06200		875.00000 
 43692.65567		 305.27265			43387.38302		69.65600		324.00000 
 43692.65567		 740.62630			42952.02937		219.06200		875.00000 
 43692.65567		 305.27265			43387.38302		69.65600		324.00000 
 43692.65567		 740.62630			42952.02937		219.06200		875.00000 
 43692.65567		 305.27265			43387.38302		69.65600		324.00000 
 43692.65567		 740.62630			42952.02937		219.06200		875.00000 
 43692.65567		 305.27265			43387.38302		69.65600		324.00000 
 43692.65567		 740.62630			42952.02937		219.06200		875.00000 
 43692.65567		 305.27265			43387.38302		69.65600		324.00000 
 43692.65567		 740.62630			42952.02937		219.06200		875.00000 
 43692.65567		 305.27265			43387.38302		69.65600		324.00000 
 43692.65567		 740.62630			42952.02937		219.06200		875.00000 
 43692.65567		 305.27265			43387.38302		69.65600		324.00000 
 43692.65567		 740.62630			42952.02937		219.06200		875.00000 
 43692.65567		 305.27265			43387.38302		69.65600		324.00000 
 43692.65567		 740.62630			42952.02937		219.06200		875.00000 
 43692.65567		 305.27265			43387.38302		69.65600		324.00000 
 43692.65567		 740.62630			42952.02937		219.06200		875.00000 
 43692.65567		 305.27265			43387.38302		69.65600		324.00000 
 43692.65567		 740.62630			42952.02937		219.06200		875.00000 
 43692.65567		 305.27265			43387.38302		69.65600		324.00000 
 43692.65567		 740.62630			42952.02937		219.06200		875.00000 
 43692.65567		 305.27265			43387.38302		69.65600		324.00000 
 43692.65567		 740.62630			42952.02937		219.06200		875.00000 
 43692.65567		 305.27265			43387.38302		69.65600		324.00000 
 43692.65567		 740.62630			42952.02937		219.06200		875.00000 
 43692.65567		 305.27265			43387.38302		69.65600		324.00000 
 43692.65567		 740.62630			42952.02937		219.06200		875.00000 
 43692.65567		 305.27265			43387.38302		69.65600		324.00000 
 43692.65567		 740.62630			42952.02937		219.06200		875.00000 
 43692.65567		 305.27265			43387.38302		69.65600		324.00000 
 43692.65567		 740.62630			42952.02937		219.06200		875.00000 
 43692.65567		 305.27265			43387.38302		69.65600		324.00000 
 43692.65567		 740.62630			42952.02937		219.06200		875.00000 
 43692.65567		 305.27265			43387.38302		69.65600		324.00000 
 43692.65567		 740.62630			42952.02937		219.06200		875.00000 
 43692.65567		 305.27265			43387.38302		69.65600		324.00000 
 43692.65567		 740.62630			42952.02937		219.06200		875.00000 
 43692.65567		 305.27265			43387.38302		69.65600		324.00000 
 43692.65567		 740.62630			42952.02937		219.06200		875.00000 
 43692.65567		 305.27265			43387.38302		69.65600		324.00000 
 43692.65567		 740.62630			42952.02937		219.06200		875.00000 
 43692.65567		 305.27265			43387.38302		69.65600		324.00000 
 43692.65567		 740.62630			42952.02937		219.06200		875.00000 
 43692.65567		 305.27265			43387.38302		69.65600		324.00000 
 43692.65567		 740.62630			42952.02937		219.06200		875.00000 
 43692.65567		 305.27265			43387.38302		69.65600		324.00000 
 43692.65567		 740.62630			42952.02937		219.06200		875.00000 
 43692.65567		 305.27265			43387.38302		69.65600		324.00000 
 43692.65567		 740.62630			42952.02937		219.06200		875.00000 
 43692.65567		 305.27265			43387.38302		69.65600		324.00000 
 43692.65567		 740.62630			42952.02937		219.06200		875.00000 
 43692.65567		 305.27265			43387.38302		69.65600		324.00000 
 43692.65567		 740.62630			42952.02937		219.06200		875.00000 
 43692.65567		 305.27265			43387.38302		69.65600		324.00000 
 43692.65567		 740.62630			42952.02937		219.06200		875.00000 
 43692.65567		 305.27265			43387.38302		69.65600		324.00000 
 43692.65567		 740.62630			42952.02937		219.06200		875.00000 
 43692.65567		 305.27265			43387.38302		69.65600		324.00000 
 43692.65567		 740.62630			42952.02937		219.06200		875.00000 
 43692.65567		 305.27265			43387.38302		69.65600		324.00000 
 43692.65567		 740.62630			42952.02937		219.06200		875.00000 
 43692.65567		 305.27265			43387.38302		69.65600		324.00000 
 43692.65567		 740.62630			42952.02937		219.06200		875.00000 
 43692.65567		 305.27265			43387.38302		69.65600		324.00000 
 43692.65567		 740.62630			42952.02937		219.06200		875.00000 
 43692.65567		 305.27265			43387.38302		69.65600		324.00000 
 43692.65567		 740.62630			42952.02937		219.06200		875.00000 
 43692.65567		 305.27265			43387.38302		69.65600		324.00000 
 43692.65567		 740.62630			42952.02937		219.06200		875.00000 
 43692.65567		 305.27265			43387.38302		69.65600		324.00000 
 43692.65567		 740.62630			42952.02937		219.06200		875.00000 
 43692.65567		 305.27265			43387.38302		69.65600		324.00000 
 43692.65567		 740.62630			42952.02937		219.06200		875.00000 
 43692.65567		 305.27265			43387.38302		69.65600		324.00000 
 43692.65567		 740.62630			42952.02937		219.06200		875.00000 
 43692.65567		 305.27265			43387.38302		69.65600		324.00000 
 43692.65567		 740.62630			42952.02937		219.06200		875.00000 
 43692.65567		 305.27265			43387.38302		69.65600		324.00000 
 43692.65567		 740.62630			42952.02937		219.06200		875.00000 
 43692.65567		 305.27265			43387.38302		69.65600		324.00000 
 43692.65567		 740.62630			42952.02937		219.06200		875.00000 
 43692.65567		 305.27265			43387.38302		69.65600		324.00000 
 43692.65567		 740.62630			42952.02937		219.06200		875.00000 
 43692.65567		 305.27265			43387.38302		69.65600		324.00000 
 43692.65567		 740.62630			42952.02937		219.06200		875.00000 
 43692.65567		 305.27265			43387.38302		69.65600		324.00000 
 43692.65567		 740.62630			42952.02937		219.06200		875.00000 
 43692.65567		 305.27265			43387.38302		69.65600		324.00000 
 43692.65567		 740.62630			42952.02937		219.06200		875.00000 
 43692.65567		 305.27265			43387.38302		69.65600		324.00000 
 43692.65567		 740.62630			42952.02937		219.06200		875.00000 
 43692.65567		 305.27265			43387.38302		69.65600		324.00000 
 43692.65567		 740.62630			42952.02937		219.06200		875.00000 
 43692.65567		 305.27265			43387.38302		69.65600		324.00000 
 43692.65567		 740.62630			42952.02937		219.06200		875.00000 
 43692.65567		 305.27265			43387.38302		69.65600		324.00000 
 43692.65567		 740.62630			42952.02937		219.06200		875.00000 
 43692.65567		 305.27265			43387.38302		69.65600		324.00000 
 43692.65567		 740.62630			42952.02937		219.06200		875.00000 
 43692.65567		 305.27265			43387.38302		69.65600		324.00000 
 43692.65567		 740.62630			42952.02937		219.06200		875.00000 
 43692.65567		 305.27265			43387.38302		69.65600		324.00000 
 43692.65567		 740.62630			42952.02937		219.06200		875.00000 
 43692.65567		 305.27265			43387.38302		69.65600		324.00000 
 43692.65567		 740.62630			42952.02937		219.06200		875.00000 
 43692.65567		 305.27265			43387.38302		69.65600		324.00000 
 43692.65567		 740.62630			42952.02937		219.06200		875.00000 
 43692.65567		 305.27265			43387.38302		69.65600		324.00000 
 43692.65567		 740.62630			42952.02937		219.06200		875.00000 
 43692.65567		 305.27265			43387.38302		69.65600		324.00000 
 43692.65567		 740.62630			42952.02937		219.06200		875.00000 
 43692.65567		 305.27265			43387.38302		69.65600		324.00000 
 43692.65567		 740.62630			42952.02937		219.06200		875.00000 
 43692.65567		 305.27265			43387.38302		69.65600		324.00000 
 43692.65567		 740.62630			42952.02937		219.06200		875.00000 
 43692.65567		 305.27265			43387.38302		69.65600		324.00000 
 43692.65567		 740.62630			42952.02937		219.06200		875.00000 
 43692.65567		 305.27265			43387.38302		69.65600		324.00000 
 43692.65567		 740.62630			42952.02937		219.06200		875.00000 
 43692.65567		 305.27265			43387.38302		69.65600		324.00000 
 43692.65567		 740.62630			42952.02937		219.06200		875.00000 
 43692.65567		 305.27265			43387.38302		69.65600		324.00000 
 43692.65567		 740.62630			42952.02937		219.06200		875.00000 
 43692.65567		 305.27265			43387.38302		69.65600		324.00000 
 43692.65567		 740.62630			42952.02937		219.06200		875.00000 
 43692.65567		 305.27265			43387.38302		69.65600		324.00000 
 43692.65567		 740.62630			42952.02937		219.06200		875.00000 
 43692.65567		 305.27265			43387.38302		69.65600		324.00000 
 43692.65567		 740.62630			42952.02937		219.06200		875.00000 
 43692.65567		 305.27265			43387.38302		69.65600		324.00000 
 43692.65567		 740.62630			42952.02937		219.06200		875.00000 
 43692.65567		 305.27265			43387.38302		69.65600		324.00000 
 43692.65567		 740.62630			42952.02937		219.06200		875.00000 
 43692.65567		 305.27265			43387.38302		69.65600		324.00000 
 43692.65567		 740.62630			42952.02937		219.06200		875.00000 
 43692.65567		 305.27265			43387.38302		69.65600		324.00000 
 43692.65567		 740.62630			42952.02937		219.06200		875.00000 
 43692.65567		 305.27265			43387.38302		69.65600		324.00000 
 43692.65567		 740.62630			42952.02937		219.06200		875.00000 
 43692.65567		 305.27265			43387.38302		69.65600		324.00000 
 43692.65567		 740.62630			42952.02937		219.06200		875.00000 
 43692.65567		 305.27265			43387.38302		69.65600		324.00000 
 43692.65567		 740.62630			42952.02937		219.06200		875.00000 
 43692.65567		 305.27265			43387.38302		69.65600		324.00000 
 43692.65567		 672.84098			43019.81470		219.06200		875.00000 
 43692.65567		 305.27265			43387.38302		69.65600		324.00000 
 43692.65567		 605.05565			43087.60002		219.06200		875.00000 
 43692.65567		 305.27265			43387.38302		69.65600		324.00000 
 43692.65567		 537.27032			43155.38535		219.06200		875.00000 
 43692.65567		 305.27265			43387.38302		69.65600		324.00000 
 43692.65567		 537.27032			43155.38535		219.06200		875.00000 
 43692.65567		 305.27265			43387.38302		69.65600		324.00000 
 43692.65567		 537.27032			43155.38535		219.06200		875.00000 
 43692.65567		 305.27265			43387.38302		69.65600		324.00000 
 43692.65567		 537.27032			43155.38535		219.06200		875.00000 
 43692.65567		 305.27265			43387.38302		69.65600		324.00000 
 43692.65567		 537.27032			43155.38535		219.06200		875.00000 
 43692.65567		 305.27265			43387.38302		69.65600		324.00000 
 43692.65567		 537.27032			43155.38535		219.06200		875.00000 
 43692.65567		 305.27265			43387.38302		69.65600		324.00000 
 43692.65567		 537.27032			43155.38535		219.06200		875.00000 
 43692.65567		 305.27265			43387.38302		69.65600		324.00000 
 43692.65567		 537.27032			43155.38535		219.06200		875.00000 
 43692.65567		 305.27265			43387.38302		69.65600		324.00000 
 43692.65567		 537.27032			43155.38535		219.06200		875.00000 
 43692.65567		 305.27265			43387.38302		69.65600		324.00000 
 43692.65567		 537.27032			43155.38535		219.06200		875.00000 
 43692.65567		 305.27265			43387.38302		69.65600		324.00000 
 43692.65567		 537.27032			43155.38535		219.06200		875.00000 
 43692.65567		 305.27265			43387.38302		69.65600		324.00000 
 43692.65567		 537.27032			43155.38535		219.06200		875.00000 
 43692.65567		 305.27265			43387.38302		69.65600		324.00000 
 43692.65567		 537.27032			43155.38535		219.06200		875.00000 
 43692.65567		 305.27265			43387.38302		69.65600		324.00000 
 43692.65567		 537.27032			43155.38535		219.06200		875.00000 
 43692.65567		 305.27265			43387.38302		69.65600		324.00000 
 43692.65567		 537.27032			43155.38535		219.06200		875.00000 
 43692.65567		 305.27265			43387.38302		69.65600		324.00000 
 43692.65567		 537.27032			43155.38535		219.06200		875.00000 
 43692.65567		 305.27265			43387.38302		69.65600		324.00000 
 43692.65567		 537.27032			43155.38535		219.06200		875.00000 
 43692.65567		 305.27265			43387.38302		69.65600		324.00000 
 43692.65567		 537.27032			43155.38535		219.06200		875.00000 
 43692.65567		 305.27265			43387.38302		69.65600		324.00000 
 43692.65567		 537.27032			43155.38535		219.06200		875.00000 
 43692.65567		 305.27265			43387.38302		69.65600		324.00000 
 43692.65567		 537.27032			43155.38535		219.06200		875.00000 
 43692.65567		 305.27265			43387.38302		69.65600		324.00000 
 43692.65567		 529.63254			43163.02313		219.06200		875.00000 
 43692.65567		 305.27265			43387.38302		69.65600		324.00000 
 43692.65567		 525.81365			43166.84203		219.06200		875.00000 
 43692.65567		 305.27265			43387.38302		69.65600		324.00000 
 43692.65567		 525.81365			43166.84203		219.06200		875.00000 
 43692.65567		 261.35540			43431.30027		69.65600		324.00000 
 43692.65567		 261.35540			43431.30027		219.06200		875.00000 
 43692.65567		 261.35540			43431.30027		69.65600		324.00000 
