Memory Total (MiB) 	 Memory Used (MiB) 	    Memory Free (MiB) 	 Power Drawed (W) 	 Clocks (Mhz) 	 
 43692.65567		 261.35540			43431.30027		176.95800		875.00000 
 43692.65567		 261.35540			43431.30027		68.69600		324.00000 
 43692.65567		 261.35540			43431.30027		176.95800		875.00000 
 43692.65567		 261.35540			43431.30027		68.69600		324.00000 
 43692.65567		 261.35540			43431.30027		176.95800		875.00000 
 43692.65567		 261.35540			43431.30027		68.69600		324.00000 
 43692.65567		 261.35540			43431.30027		176.95800		875.00000 
 43692.65567		 261.35540			43431.30027		68.69600		324.00000 
 43692.65567		 261.35540			43431.30027		176.95800		875.00000 
 43692.65567		 261.35540			43431.30027		68.69600		324.00000 
 43692.65567		 261.35540			43431.30027		176.95800		875.00000 
 43692.65567		 261.35540			43431.30027		68.69600		324.00000 
 43692.65567		 261.35540			43431.30027		176.95800		875.00000 
 43692.65567		 261.35540			43431.30027		68.69600		324.00000 
 43692.65567		 261.35540			43431.30027		176.95800		875.00000 
 43692.65567		 261.35540			43431.30027		68.69600		324.00000 
 43692.65567		 261.35540			43431.30027		176.95800		875.00000 
 43692.65567		 261.35540			43431.30027		68.69600		324.00000 
 43692.65567		 261.35540			43431.30027		176.95800		875.00000 
 43692.65567		 261.35540			43431.30027		68.69600		324.00000 
 43692.65567		 261.35540			43431.30027		176.95800		875.00000 
 43692.65567		 261.35540			43431.30027		68.69600		324.00000 
 43692.65567		 261.35540			43431.30027		176.95800		875.00000 
 43692.65567		 261.35540			43431.30027		68.69600		324.00000 
 43692.65567		 261.35540			43431.30027		176.95800		875.00000 
 43692.65567		 261.35540			43431.30027		68.69600		324.00000 
 43692.65567		 261.35540			43431.30027		176.95800		875.00000 
 43692.65567		 261.35540			43431.30027		68.69600		324.00000 
 43692.65567		 261.35540			43431.30027		176.95800		875.00000 
 43692.65567		 261.35540			43431.30027		68.69600		324.00000 
 43692.65567		 261.35540			43431.30027		176.95800		875.00000 
 43692.65567		 261.35540			43431.30027		68.69600		324.00000 
 43692.65567		 261.35540			43431.30027		176.95800		875.00000 
 43692.65567		 261.35540			43431.30027		68.69600		324.00000 
 43692.65567		 265.17429			43427.48138		176.95800		875.00000 
 43692.65567		 261.35540			43431.30027		68.69600		324.00000 
 43692.65567		 265.17429			43427.48138		176.95800		875.00000 
 43692.65567		 261.35540			43431.30027		68.69600		324.00000 
 43692.65567		 272.81207			43419.84360		176.95800		875.00000 
 43692.65567		 261.35540			43431.30027		68.69600		324.00000 
 43692.65567		 272.81207			43419.84360		176.95800		875.00000 
 43692.65567		 261.35540			43431.30027		68.69600		324.00000 
 43692.65567		 272.81207			43419.84360		176.95800		875.00000 
 43692.65567		 265.17429			43427.48138		68.69600		324.00000 
 43692.65567		 272.81207			43419.84360		176.95800		875.00000 
 43692.65567		 265.17429			43427.48138		68.69600		324.00000 
 43692.65567		 272.81207			43419.84360		176.95800		875.00000 
 43692.65567		 272.81207			43419.84360		68.69600		324.00000 
 43692.65567		 272.81207			43419.84360		176.95800		875.00000 
 43692.65567		 272.81207			43419.84360		68.69600		324.00000 
 43692.65567		 272.81207			43419.84360		176.95800		875.00000 
 43692.65567		 272.81207			43419.84360		68.69600		324.00000 
 43692.65567		 272.81207			43419.84360		176.95800		875.00000 
 43692.65567		 272.81207			43419.84360		68.69600		324.00000 
 43692.65567		 305.27265			43387.38302		176.95800		875.00000 
 43692.65567		 305.27265			43387.38302		68.69600		324.00000 
 43692.65567		 305.27265			43387.38302		176.95800		875.00000 
 43692.65567		 305.27265			43387.38302		68.69600		324.00000 
 43692.65567		 305.27265			43387.38302		176.95800		875.00000 
 43692.65567		 305.27265			43387.38302		68.69600		324.00000 
 43692.65567		 305.27265			43387.38302		176.95800		875.00000 
 43692.65567		 305.27265			43387.38302		68.69600		324.00000 
 43692.65567		 305.27265			43387.38302		176.95800		875.00000 
 43692.65567		 305.27265			43387.38302		68.69600		324.00000 
 43692.65567		 309.56891			43383.08677		176.95800		875.00000 
 43692.65567		 305.27265			43387.38302		68.69600		324.00000 
 43692.65567		 311.00099			43381.65468		176.95800		875.00000 
 43692.65567		 305.27265			43387.38302		68.69600		324.00000 
 43692.65567		 311.00099			43381.65468		148.06400		875.00000 
 43692.65567		 305.27265			43387.38302		68.69600		324.00000 
 43692.65567		 311.00099			43381.65468		148.06400		875.00000 
 43692.65567		 305.27265			43387.38302		68.69600		324.00000 
 43692.65567		 311.00099			43381.65468		148.06400		875.00000 
 43692.65567		 305.27265			43387.38302		68.69600		324.00000 
 43692.65567		 311.00099			43381.65468		148.06400		875.00000 
 43692.65567		 305.27265			43387.38302		68.69600		324.00000 
 43692.65567		 311.00099			43381.65468		148.06400		875.00000 
 43692.65567		 305.27265			43387.38302		68.69600		324.00000 
 43692.65567		 311.00099			43381.65468		148.06400		875.00000 
 43692.65567		 305.27265			43387.38302		68.69600		324.00000 
 43692.65567		 311.00099			43381.65468		148.06400		875.00000 
 43692.65567		 305.27265			43387.38302		68.69600		324.00000 
 43692.65567		 311.00099			43381.65468		148.06400		875.00000 
 43692.65567		 305.27265			43387.38302		68.69600		324.00000 
 43692.65567		 311.00099			43381.65468		148.06400		875.00000 
 43692.65567		 305.27265			43387.38302		68.69600		324.00000 
 43692.65567		 311.00099			43381.65468		148.06400		875.00000 
 43692.65567		 305.27265			43387.38302		68.69600		324.00000 
 43692.65567		 311.00099			43381.65468		148.06400		875.00000 
 43692.65567		 305.27265			43387.38302		68.69600		324.00000 
 43692.65567		 311.00099			43381.65468		148.06400		875.00000 
 43692.65567		 305.27265			43387.38302		68.69600		324.00000 
 43692.65567		 311.00099			43381.65468		148.06400		875.00000 
 43692.65567		 305.27265			43387.38302		68.69600		324.00000 
 43692.65567		 311.00099			43381.65468		148.06400		875.00000 
 43692.65567		 305.27265			43387.38302		68.69600		324.00000 
 43692.65567		 311.00099			43381.65468		148.06400		875.00000 
 43692.65567		 305.27265			43387.38302		68.69600		324.00000 
 43692.65567		 311.00099			43381.65468		148.06400		875.00000 
 43692.65567		 305.27265			43387.38302		68.69600		324.00000 
 43692.65567		 311.00099			43381.65468		148.06400		875.00000 
 43692.65567		 305.27265			43387.38302		68.69600		324.00000 
 43692.65567		 311.00099			43381.65468		148.06400		875.00000 
 43692.65567		 305.27265			43387.38302		68.69600		324.00000 
 43692.65567		 311.00099			43381.65468		148.06400		875.00000 
 43692.65567		 305.27265			43387.38302		68.69600		324.00000 
 43692.65567		 311.00099			43381.65468		148.06400		875.00000 
 43692.65567		 305.27265			43387.38302		68.69600		324.00000 
 43692.65567		 311.00099			43381.65468		148.06400		875.00000 
 43692.65567		 305.27265			43387.38302		68.69600		324.00000 
 43692.65567		 311.00099			43381.65468		148.06400		875.00000 
 43692.65567		 305.27265			43387.38302		68.69600		324.00000 
 43692.65567		 311.00099			43381.65468		148.06400		875.00000 
 43692.65567		 305.27265			43387.38302		68.69600		324.00000 
 43692.65567		 311.00099			43381.65468		148.06400		875.00000 
 43692.65567		 305.27265			43387.38302		68.69600		324.00000 
 43692.65567		 311.00099			43381.65468		148.06400		875.00000 
 43692.65567		 305.27265			43387.38302		68.69600		324.00000 
 43692.65567		 311.00099			43381.65468		148.06400		875.00000 
 43692.65567		 305.27265			43387.38302		68.69600		324.00000 
 43692.65567		 311.00099			43381.65468		148.06400		875.00000 
 43692.65567		 305.27265			43387.38302		68.69600		324.00000 
 43692.65567		 311.00099			43381.65468		148.06400		875.00000 
 43692.65567		 305.27265			43387.38302		68.69600		324.00000 
 43692.65567		 311.00099			43381.65468		148.06400		875.00000 
 43692.65567		 305.27265			43387.38302		68.69600		324.00000 
 43692.65567		 311.00099			43381.65468		148.06400		875.00000 
 43692.65567		 305.27265			43387.38302		68.69600		324.00000 
 43692.65567		 311.00099			43381.65468		148.06400		875.00000 
 43692.65567		 305.27265			43387.38302		68.69600		324.00000 
 43692.65567		 311.00099			43381.65468		148.06400		875.00000 
 43692.65567		 305.27265			43387.38302		68.69600		324.00000 
 43692.65567		 311.00099			43381.65468		148.06400		875.00000 
 43692.65567		 305.27265			43387.38302		68.69600		324.00000 
 43692.65567		 311.00099			43381.65468		138.09000		875.00000 
 43692.65567		 305.27265			43387.38302		68.69600		324.00000 
 43692.65567		 311.00099			43381.65468		138.09000		875.00000 
 43692.65567		 305.27265			43387.38302		68.69600		324.00000 
 43692.65567		 311.00099			43381.65468		138.09000		875.00000 
 43692.65567		 305.27265			43387.38302		68.69600		324.00000 
 43692.65567		 311.00099			43381.65468		138.09000		875.00000 
 43692.65567		 305.27265			43387.38302		68.69600		324.00000 
 43692.65567		 311.00099			43381.65468		138.09000		875.00000 
 43692.65567		 305.27265			43387.38302		68.69600		324.00000 
 43692.65567		 311.00099			43381.65468		138.09000		875.00000 
 43692.65567		 305.27265			43387.38302		68.69600		324.00000 
 43692.65567		 311.00099			43381.65468		138.09000		875.00000 
 43692.65567		 305.27265			43387.38302		68.69600		324.00000 
 43692.65567		 311.00099			43381.65468		138.09000		875.00000 
 43692.65567		 305.27265			43387.38302		68.69600		324.00000 
 43692.65567		 311.00099			43381.65468		138.09000		875.00000 
 43692.65567		 305.27265			43387.38302		68.69600		324.00000 
 43692.65567		 311.00099			43381.65468		138.09000		875.00000 
 43692.65567		 305.27265			43387.38302		68.69600		324.00000 
 43692.65567		 311.00099			43381.65468		138.09000		875.00000 
 43692.65567		 305.27265			43387.38302		68.69600		324.00000 
 43692.65567		 311.00099			43381.65468		138.09000		875.00000 
 43692.65567		 305.27265			43387.38302		68.69600		324.00000 
 43692.65567		 311.00099			43381.65468		138.09000		875.00000 
 43692.65567		 305.27265			43387.38302		68.69600		324.00000 
 43692.65567		 311.00099			43381.65468		138.09000		875.00000 
 43692.65567		 305.27265			43387.38302		68.69600		324.00000 
 43692.65567		 311.00099			43381.65468		138.09000		875.00000 
 43692.65567		 305.27265			43387.38302		68.69600		324.00000 
 43692.65567		 311.00099			43381.65468		138.09000		875.00000 
 43692.65567		 305.27265			43387.38302		68.69600		324.00000 
 43692.65567		 311.00099			43381.65468		138.09000		875.00000 
 43692.65567		 305.27265			43387.38302		68.69600		324.00000 
 43692.65567		 314.81988			43377.83579		138.09000		875.00000 
 43692.65567		 305.27265			43387.38302		68.69600		324.00000 
 43692.65567		 314.81988			43377.83579		138.09000		875.00000 
 43692.65567		 305.27265			43387.38302		68.69600		324.00000 
 43692.65567		 314.81988			43377.83579		138.09000		875.00000 
 43692.65567		 305.27265			43387.38302		68.69600		324.00000 
 43692.65567		 318.63877			43374.01690		138.09000		875.00000 
 43692.65567		 305.27265			43387.38302		68.69600		324.00000 
 43692.65567		 322.45767			43370.19801		138.09000		875.00000 
 43692.65567		 305.27265			43387.38302		68.69600		324.00000 
 43692.65567		 326.27656			43366.37912		138.09000		875.00000 
 43692.65567		 305.27265			43387.38302		68.69600		324.00000 
 43692.65567		 326.27656			43366.37912		138.09000		875.00000 
 43692.65567		 305.27265			43387.38302		68.69600		324.00000 
 43692.65567		 326.27656			43366.37912		138.09000		875.00000 
 43692.65567		 305.27265			43387.38302		68.69600		324.00000 
 43692.65567		 537.27032			43155.38535		138.09000		875.00000 
 43692.65567		 305.27265			43387.38302		68.69600		324.00000 
 43692.65567		 613.64816			43079.00752		138.09000		875.00000 
 43692.65567		 305.27265			43387.38302		68.69600		324.00000 
 43692.65567		 651.83707			43040.81860		138.09000		875.00000 
 43692.65567		 305.27265			43387.38302		68.69600		324.00000 
 43692.65567		 651.83707			43040.81860		138.09000		875.00000 
 43692.65567		 305.27265			43387.38302		68.69600		324.00000 
 43692.65567		 651.83707			43040.81860		138.09000		875.00000 
 43692.65567		 305.27265			43387.38302		68.69600		324.00000 
 43692.65567		 651.83707			43040.81860		138.09000		875.00000 
 43692.65567		 305.27265			43387.38302		68.69600		324.00000 
 43692.65567		 651.83707			43040.81860		138.09000		875.00000 
 43692.65567		 305.27265			43387.38302		68.69600		324.00000 
 43692.65567		 651.83707			43040.81860		138.09000		875.00000 
 43692.65567		 305.27265			43387.38302		68.69600		324.00000 
 43692.65567		 651.83707			43040.81860		138.09000		875.00000 
 43692.65567		 305.27265			43387.38302		68.69600		324.00000 
 43692.65567		 651.83707			43040.81860		138.09000		875.00000 
 43692.65567		 305.27265			43387.38302		68.69600		324.00000 
 43692.65567		 651.83707			43040.81860		138.09000		875.00000 
 43692.65567		 305.27265			43387.38302		68.69600		324.00000 
 43692.65567		 651.83707			43040.81860		138.09000		875.00000 
 43692.65567		 305.27265			43387.38302		68.69600		324.00000 
 43692.65567		 651.83707			43040.81860		138.09000		875.00000 
 43692.65567		 305.27265			43387.38302		68.69600		324.00000 
 43692.65567		 651.83707			43040.81860		138.09000		875.00000 
 43692.65567		 305.27265			43387.38302		68.69600		324.00000 
 43692.65567		 651.83707			43040.81860		138.09000		875.00000 
 43692.65567		 305.27265			43387.38302		68.69600		324.00000 
 43692.65567		 651.83707			43040.81860		152.08000		875.00000 
 43692.65567		 305.27265			43387.38302		68.69600		324.00000 
 43692.65567		 651.83707			43040.81860		152.08000		875.00000 
 43692.65567		 305.27265			43387.38302		68.69600		324.00000 
 43692.65567		 651.83707			43040.81860		152.08000		875.00000 
 43692.65567		 305.27265			43387.38302		68.69600		324.00000 
 43692.65567		 651.83707			43040.81860		152.08000		875.00000 
 43692.65567		 305.27265			43387.38302		68.69600		324.00000 
 43692.65567		 651.83707			43040.81860		152.08000		875.00000 
 43692.65567		 305.27265			43387.38302		68.69600		324.00000 
 43692.65567		 651.83707			43040.81860		152.08000		875.00000 
 43692.65567		 305.27265			43387.38302		68.69600		324.00000 
 43692.65567		 651.83707			43040.81860		152.08000		875.00000 
 43692.65567		 305.27265			43387.38302		68.69600		324.00000 
 43692.65567		 651.83707			43040.81860		152.08000		875.00000 
 43692.65567		 305.27265			43387.38302		68.69600		324.00000 
 43692.65567		 651.83707			43040.81860		152.08000		875.00000 
 43692.65567		 305.27265			43387.38302		68.69600		324.00000 
 43692.65567		 651.83707			43040.81860		152.08000		875.00000 
 43692.65567		 305.27265			43387.38302		68.69600		324.00000 
 43692.65567		 651.83707			43040.81860		152.08000		875.00000 
 43692.65567		 305.27265			43387.38302		68.69600		324.00000 
 43692.65567		 651.83707			43040.81860		152.08000		875.00000 
 43692.65567		 305.27265			43387.38302		68.69600		324.00000 
 43692.65567		 651.83707			43040.81860		152.08000		875.00000 
 43692.65567		 305.27265			43387.38302		68.69600		324.00000 
 43692.65567		 651.83707			43040.81860		152.08000		875.00000 
 43692.65567		 305.27265			43387.38302		68.69600		324.00000 
 43692.65567		 651.83707			43040.81860		152.08000		875.00000 
 43692.65567		 305.27265			43387.38302		68.69600		324.00000 
 43692.65567		 651.83707			43040.81860		152.08000		875.00000 
 43692.65567		 305.27265			43387.38302		68.69600		324.00000 
 43692.65567		 651.83707			43040.81860		152.08000		875.00000 
 43692.65567		 305.27265			43387.38302		68.69600		324.00000 
 43692.65567		 651.83707			43040.81860		152.08000		875.00000 
 43692.65567		 305.27265			43387.38302		68.69600		324.00000 
 43692.65567		 651.83707			43040.81860		152.08000		875.00000 
 43692.65567		 305.27265			43387.38302		68.69600		324.00000 
 43692.65567		 651.83707			43040.81860		152.08000		875.00000 
 43692.65567		 305.27265			43387.38302		68.69600		324.00000 
 43692.65567		 651.83707			43040.81860		152.08000		875.00000 
 43692.65567		 305.27265			43387.38302		68.69600		324.00000 
 43692.65567		 651.83707			43040.81860		152.08000		875.00000 
 43692.65567		 305.27265			43387.38302		68.69600		324.00000 
 43692.65567		 651.83707			43040.81860		152.08000		875.00000 
 43692.65567		 305.27265			43387.38302		68.69600		324.00000 
 43692.65567		 651.83707			43040.81860		152.08000		875.00000 
 43692.65567		 305.27265			43387.38302		68.69600		324.00000 
 43692.65567		 651.83707			43040.81860		152.08000		875.00000 
 43692.65567		 305.27265			43387.38302		68.69600		324.00000 
 43692.65567		 651.83707			43040.81860		152.08000		875.00000 
 43692.65567		 305.27265			43387.38302		68.69600		324.00000 
 43692.65567		 651.83707			43040.81860		152.08000		875.00000 
 43692.65567		 305.27265			43387.38302		68.69600		324.00000 
 43692.65567		 651.83707			43040.81860		152.08000		875.00000 
 43692.65567		 305.27265			43387.38302		68.69600		324.00000 
 43692.65567		 651.83707			43040.81860		152.08000		875.00000 
 43692.65567		 305.27265			43387.38302		68.69600		324.00000 
 43692.65567		 651.83707			43040.81860		152.08000		875.00000 
 43692.65567		 305.27265			43387.38302		68.69600		324.00000 
 43692.65567		 651.83707			43040.81860		152.08000		875.00000 
 43692.65567		 305.27265			43387.38302		68.69600		324.00000 
 43692.65567		 651.83707			43040.81860		152.08000		875.00000 
 43692.65567		 305.27265			43387.38302		68.69600		324.00000 
 43692.65567		 651.83707			43040.81860		152.08000		875.00000 
 43692.65567		 305.27265			43387.38302		68.69600		324.00000 
 43692.65567		 651.83707			43040.81860		152.08000		875.00000 
 43692.65567		 305.27265			43387.38302		68.69600		324.00000 
 43692.65567		 651.83707			43040.81860		152.08000		875.00000 
 43692.65567		 305.27265			43387.38302		68.69600		324.00000 
 43692.65567		 651.83707			43040.81860		152.08000		875.00000 
 43692.65567		 305.27265			43387.38302		68.69600		324.00000 
 43692.65567		 651.83707			43040.81860		152.08000		875.00000 
 43692.65567		 305.27265			43387.38302		68.69600		324.00000 
 43692.65567		 651.83707			43040.81860		152.08000		875.00000 
 43692.65567		 305.27265			43387.38302		68.69600		324.00000 
 43692.65567		 651.83707			43040.81860		152.08000		875.00000 
 43692.65567		 305.27265			43387.38302		68.69600		324.00000 
 43692.65567		 651.83707			43040.81860		152.08000		875.00000 
 43692.65567		 305.27265			43387.38302		68.69600		324.00000 
 43692.65567		 651.83707			43040.81860		152.08000		875.00000 
 43692.65567		 305.27265			43387.38302		68.69600		324.00000 
 43692.65567		 651.83707			43040.81860		152.08000		875.00000 
 43692.65567		 305.27265			43387.38302		68.69600		324.00000 
 43692.65567		 651.83707			43040.81860		152.08000		875.00000 
 43692.65567		 305.27265			43387.38302		68.69600		324.00000 
 43692.65567		 651.83707			43040.81860		152.08000		875.00000 
 43692.65567		 305.27265			43387.38302		68.69600		324.00000 
 43692.65567		 651.83707			43040.81860		152.08000		875.00000 
 43692.65567		 305.27265			43387.38302		68.69600		324.00000 
 43692.65567		 651.83707			43040.81860		152.08000		875.00000 
 43692.65567		 305.27265			43387.38302		68.69600		324.00000 
 43692.65567		 651.83707			43040.81860		152.08000		875.00000 
 43692.65567		 305.27265			43387.38302		68.69600		324.00000 
 43692.65567		 651.83707			43040.81860		152.08000		875.00000 
 43692.65567		 305.27265			43387.38302		68.69600		324.00000 
 43692.65567		 651.83707			43040.81860		152.08000		875.00000 
 43692.65567		 305.27265			43387.38302		68.69600		324.00000 
 43692.65567		 651.83707			43040.81860		152.08000		875.00000 
 43692.65567		 305.27265			43387.38302		68.69600		324.00000 
 43692.65567		 651.83707			43040.81860		152.08000		875.00000 
 43692.65567		 305.27265			43387.38302		68.69600		324.00000 
 43692.65567		 651.83707			43040.81860		152.08000		875.00000 
 43692.65567		 305.27265			43387.38302		68.69600		324.00000 
 43692.65567		 651.83707			43040.81860		152.08000		875.00000 
 43692.65567		 305.27265			43387.38302		68.69600		324.00000 
 43692.65567		 651.83707			43040.81860		152.08000		875.00000 
 43692.65567		 305.27265			43387.38302		68.69600		324.00000 
 43692.65567		 651.83707			43040.81860		152.08000		875.00000 
 43692.65567		 305.27265			43387.38302		68.69600		324.00000 
 43692.65567		 651.83707			43040.81860		152.08000		875.00000 
 43692.65567		 305.27265			43387.38302		68.69600		324.00000 
 43692.65567		 651.83707			43040.81860		152.08000		875.00000 
 43692.65567		 305.27265			43387.38302		68.69600		324.00000 
 43692.65567		 651.83707			43040.81860		152.08000		875.00000 
 43692.65567		 305.27265			43387.38302		68.69600		324.00000 
 43692.65567		 651.83707			43040.81860		152.08000		875.00000 
 43692.65567		 305.27265			43387.38302		68.69600		324.00000 
 43692.65567		 651.83707			43040.81860		152.08000		875.00000 
 43692.65567		 305.27265			43387.38302		68.69600		324.00000 
 43692.65567		 651.83707			43040.81860		152.08000		875.00000 
 43692.65567		 305.27265			43387.38302		68.69600		324.00000 
 43692.65567		 651.83707			43040.81860		152.08000		875.00000 
 43692.65567		 305.27265			43387.38302		68.69600		324.00000 
 43692.65567		 651.83707			43040.81860		152.08000		875.00000 
 43692.65567		 305.27265			43387.38302		68.69600		324.00000 
 43692.65567		 651.83707			43040.81860		152.08000		875.00000 
 43692.65567		 305.27265			43387.38302		68.69600		324.00000 
 43692.65567		 651.83707			43040.81860		194.60400		875.00000 
 43692.65567		 305.27265			43387.38302		68.69600		324.00000 
 43692.65567		 651.83707			43040.81860		194.60400		875.00000 
 43692.65567		 305.27265			43387.38302		68.69600		324.00000 
 43692.65567		 651.83707			43040.81860		194.60400		875.00000 
 43692.65567		 305.27265			43387.38302		68.69600		324.00000 
 43692.65567		 651.83707			43040.81860		194.60400		875.00000 
 43692.65567		 305.27265			43387.38302		68.69600		324.00000 
 43692.65567		 651.83707			43040.81860		194.60400		875.00000 
 43692.65567		 305.27265			43387.38302		68.69600		324.00000 
 43692.65567		 651.83707			43040.81860		194.60400		875.00000 
 43692.65567		 305.27265			43387.38302		68.69600		324.00000 
 43692.65567		 651.83707			43040.81860		194.60400		875.00000 
 43692.65567		 305.27265			43387.38302		68.69600		324.00000 
 43692.65567		 651.83707			43040.81860		194.60400		875.00000 
 43692.65567		 305.27265			43387.38302		68.69600		324.00000 
 43692.65567		 651.83707			43040.81860		194.60400		875.00000 
 43692.65567		 305.27265			43387.38302		68.69600		324.00000 
 43692.65567		 651.83707			43040.81860		194.60400		875.00000 
 43692.65567		 305.27265			43387.38302		68.69600		324.00000 
 43692.65567		 651.83707			43040.81860		194.60400		875.00000 
 43692.65567		 305.27265			43387.38302		68.69600		324.00000 
 43692.65567		 651.83707			43040.81860		194.60400		875.00000 
 43692.65567		 305.27265			43387.38302		68.69600		324.00000 
 43692.65567		 651.83707			43040.81860		194.60400		875.00000 
 43692.65567		 305.27265			43387.38302		68.69600		324.00000 
 43692.65567		 651.83707			43040.81860		194.60400		875.00000 
 43692.65567		 305.27265			43387.38302		68.69600		324.00000 
 43692.65567		 651.83707			43040.81860		194.60400		875.00000 
 43692.65567		 305.27265			43387.38302		68.69600		324.00000 
 43692.65567		 651.83707			43040.81860		194.60400		875.00000 
 43692.65567		 305.27265			43387.38302		68.69600		324.00000 
 43692.65567		 651.83707			43040.81860		194.60400		875.00000 
 43692.65567		 305.27265			43387.38302		68.69600		324.00000 
 43692.65567		 651.83707			43040.81860		194.60400		875.00000 
 43692.65567		 305.27265			43387.38302		68.69600		324.00000 
 43692.65567		 651.83707			43040.81860		194.60400		875.00000 
 43692.65567		 305.27265			43387.38302		68.69600		324.00000 
 43692.65567		 651.83707			43040.81860		194.60400		875.00000 
 43692.65567		 305.27265			43387.38302		68.69600		324.00000 
 43692.65567		 651.83707			43040.81860		194.60400		875.00000 
 43692.65567		 305.27265			43387.38302		68.69600		324.00000 
 43692.65567		 651.83707			43040.81860		194.60400		875.00000 
 43692.65567		 305.27265			43387.38302		68.69600		324.00000 
 43692.65567		 651.83707			43040.81860		194.60400		875.00000 
 43692.65567		 305.27265			43387.38302		69.17800		324.00000 
 43692.65567		 651.83707			43040.81860		194.60400		875.00000 
 43692.65567		 305.27265			43387.38302		69.17800		324.00000 
 43692.65567		 651.83707			43040.81860		194.60400		875.00000 
 43692.65567		 305.27265			43387.38302		69.17800		324.00000 
 43692.65567		 651.83707			43040.81860		194.60400		875.00000 
 43692.65567		 305.27265			43387.38302		69.17800		324.00000 
 43692.65567		 651.83707			43040.81860		194.60400		875.00000 
 43692.65567		 305.27265			43387.38302		69.17800		324.00000 
 43692.65567		 651.83707			43040.81860		194.60400		875.00000 
 43692.65567		 305.27265			43387.38302		69.17800		324.00000 
 43692.65567		 651.83707			43040.81860		194.60400		875.00000 
 43692.65567		 305.27265			43387.38302		69.17800		324.00000 
 43692.65567		 651.83707			43040.81860		194.60400		875.00000 
 43692.65567		 305.27265			43387.38302		69.17800		324.00000 
 43692.65567		 651.83707			43040.81860		194.60400		875.00000 
 43692.65567		 305.27265			43387.38302		69.17800		324.00000 
 43692.65567		 651.83707			43040.81860		194.60400		875.00000 
 43692.65567		 305.27265			43387.38302		69.17800		324.00000 
 43692.65567		 651.83707			43040.81860		194.60400		875.00000 
 43692.65567		 305.27265			43387.38302		69.17800		324.00000 
 43692.65567		 651.83707			43040.81860		194.60400		875.00000 
 43692.65567		 305.27265			43387.38302		69.17800		324.00000 
 43692.65567		 651.83707			43040.81860		194.60400		875.00000 
 43692.65567		 305.27265			43387.38302		69.17800		324.00000 
 43692.65567		 651.83707			43040.81860		194.60400		875.00000 
 43692.65567		 305.27265			43387.38302		69.17800		324.00000 
 43692.65567		 651.83707			43040.81860		194.60400		875.00000 
 43692.65567		 305.27265			43387.38302		69.17800		324.00000 
 43692.65567		 651.83707			43040.81860		194.60400		875.00000 
 43692.65567		 305.27265			43387.38302		69.17800		324.00000 
 43692.65567		 651.83707			43040.81860		194.60400		875.00000 
 43692.65567		 305.27265			43387.38302		69.17800		324.00000 
 43692.65567		 651.83707			43040.81860		194.60400		875.00000 
 43692.65567		 305.27265			43387.38302		69.17800		324.00000 
 43692.65567		 651.83707			43040.81860		194.60400		875.00000 
 43692.65567		 305.27265			43387.38302		69.17800		324.00000 
 43692.65567		 651.83707			43040.81860		194.60400		875.00000 
 43692.65567		 305.27265			43387.38302		69.17800		324.00000 
 43692.65567		 651.83707			43040.81860		194.60400		875.00000 
 43692.65567		 305.27265			43387.38302		69.17800		324.00000 
 43692.65567		 651.83707			43040.81860		194.60400		875.00000 
 43692.65567		 305.27265			43387.38302		69.17800		324.00000 
 43692.65567		 651.83707			43040.81860		194.60400		875.00000 
 43692.65567		 305.27265			43387.38302		69.17800		324.00000 
 43692.65567		 651.83707			43040.81860		194.60400		875.00000 
 43692.65567		 305.27265			43387.38302		69.17800		324.00000 
 43692.65567		 651.83707			43040.81860		194.60400		875.00000 
 43692.65567		 305.27265			43387.38302		69.17800		324.00000 
 43692.65567		 651.83707			43040.81860		194.60400		875.00000 
 43692.65567		 305.27265			43387.38302		69.17800		324.00000 
 43692.65567		 651.83707			43040.81860		194.60400		875.00000 
 43692.65567		 305.27265			43387.38302		69.17800		324.00000 
 43692.65567		 651.83707			43040.81860		194.60400		875.00000 
 43692.65567		 305.27265			43387.38302		69.17800		324.00000 
 43692.65567		 651.83707			43040.81860		194.60400		875.00000 
 43692.65567		 305.27265			43387.38302		69.17800		324.00000 
 43692.65567		 651.83707			43040.81860		194.60400		875.00000 
 43692.65567		 305.27265			43387.38302		69.17800		324.00000 
 43692.65567		 651.83707			43040.81860		194.60400		875.00000 
 43692.65567		 305.27265			43387.38302		69.17800		324.00000 
 43692.65567		 651.83707			43040.81860		194.60400		875.00000 
 43692.65567		 305.27265			43387.38302		69.17800		324.00000 
 43692.65567		 651.83707			43040.81860		194.60400		875.00000 
 43692.65567		 305.27265			43387.38302		69.17800		324.00000 
 43692.65567		 651.83707			43040.81860		194.60400		875.00000 
 43692.65567		 305.27265			43387.38302		69.17800		324.00000 
 43692.65567		 651.83707			43040.81860		194.60400		875.00000 
 43692.65567		 305.27265			43387.38302		69.17800		324.00000 
 43692.65567		 651.83707			43040.81860		194.60400		875.00000 
 43692.65567		 305.27265			43387.38302		69.17800		324.00000 
 43692.65567		 651.83707			43040.81860		194.60400		875.00000 
 43692.65567		 305.27265			43387.38302		69.17800		324.00000 
 43692.65567		 651.83707			43040.81860		194.60400		875.00000 
 43692.65567		 305.27265			43387.38302		69.17800		324.00000 
 43692.65567		 651.83707			43040.81860		194.60400		875.00000 
 43692.65567		 305.27265			43387.38302		69.17800		324.00000 
 43692.65567		 651.83707			43040.81860		212.13800		875.00000 
 43692.65567		 305.27265			43387.38302		69.17800		324.00000 
 43692.65567		 651.83707			43040.81860		212.13800		875.00000 
 43692.65567		 305.27265			43387.38302		69.17800		324.00000 
 43692.65567		 651.83707			43040.81860		212.13800		875.00000 
 43692.65567		 305.27265			43387.38302		69.17800		324.00000 
 43692.65567		 651.83707			43040.81860		212.13800		875.00000 
 43692.65567		 305.27265			43387.38302		69.17800		324.00000 
 43692.65567		 651.83707			43040.81860		212.13800		875.00000 
 43692.65567		 305.27265			43387.38302		69.17800		324.00000 
 43692.65567		 651.83707			43040.81860		212.13800		875.00000 
 43692.65567		 305.27265			43387.38302		69.17800		324.00000 
 43692.65567		 651.83707			43040.81860		212.13800		875.00000 
 43692.65567		 305.27265			43387.38302		69.17800		324.00000 
 43692.65567		 651.83707			43040.81860		212.13800		875.00000 
 43692.65567		 305.27265			43387.38302		69.17800		324.00000 
 43692.65567		 651.83707			43040.81860		212.13800		875.00000 
 43692.65567		 305.27265			43387.38302		69.17800		324.00000 
 43692.65567		 651.83707			43040.81860		212.13800		875.00000 
 43692.65567		 305.27265			43387.38302		69.17800		324.00000 
 43692.65567		 651.83707			43040.81860		212.13800		875.00000 
 43692.65567		 305.27265			43387.38302		69.17800		324.00000 
 43692.65567		 651.83707			43040.81860		212.13800		875.00000 
 43692.65567		 305.27265			43387.38302		69.17800		324.00000 
 43692.65567		 651.83707			43040.81860		212.13800		875.00000 
 43692.65567		 305.27265			43387.38302		69.17800		324.00000 
 43692.65567		 651.83707			43040.81860		212.13800		875.00000 
 43692.65567		 305.27265			43387.38302		69.17800		324.00000 
 43692.65567		 651.83707			43040.81860		212.13800		875.00000 
 43692.65567		 305.27265			43387.38302		69.17800		324.00000 
 43692.65567		 651.83707			43040.81860		212.13800		875.00000 
 43692.65567		 305.27265			43387.38302		69.17800		324.00000 
 43692.65567		 651.83707			43040.81860		212.13800		875.00000 
 43692.65567		 305.27265			43387.38302		69.17800		324.00000 
 43692.65567		 651.83707			43040.81860		212.13800		875.00000 
 43692.65567		 305.27265			43387.38302		69.17800		324.00000 
 43692.65567		 651.83707			43040.81860		212.13800		875.00000 
 43692.65567		 305.27265			43387.38302		69.17800		324.00000 
 43692.65567		 651.83707			43040.81860		212.13800		875.00000 
 43692.65567		 305.27265			43387.38302		69.17800		324.00000 
 43692.65567		 651.83707			43040.81860		212.13800		875.00000 
 43692.65567		 305.27265			43387.38302		69.17800		324.00000 
 43692.65567		 651.83707			43040.81860		212.13800		875.00000 
 43692.65567		 305.27265			43387.38302		69.17800		324.00000 
 43692.65567		 651.83707			43040.81860		212.13800		875.00000 
 43692.65567		 305.27265			43387.38302		69.17800		324.00000 
 43692.65567		 651.83707			43040.81860		212.13800		875.00000 
 43692.65567		 305.27265			43387.38302		69.17800		324.00000 
 43692.65567		 651.83707			43040.81860		212.13800		875.00000 
 43692.65567		 305.27265			43387.38302		69.17800		324.00000 
 43692.65567		 651.83707			43040.81860		212.13800		875.00000 
 43692.65567		 305.27265			43387.38302		69.17800		324.00000 
 43692.65567		 651.83707			43040.81860		212.13800		875.00000 
 43692.65567		 305.27265			43387.38302		69.17800		324.00000 
 43692.65567		 651.83707			43040.81860		212.13800		875.00000 
 43692.65567		 305.27265			43387.38302		69.17800		324.00000 
 43692.65567		 651.83707			43040.81860		212.13800		875.00000 
 43692.65567		 305.27265			43387.38302		69.17800		324.00000 
 43692.65567		 651.83707			43040.81860		212.13800		875.00000 
 43692.65567		 305.27265			43387.38302		69.17800		324.00000 
 43692.65567		 651.83707			43040.81860		212.13800		875.00000 
 43692.65567		 305.27265			43387.38302		69.17800		324.00000 
 43692.65567		 651.83707			43040.81860		212.13800		875.00000 
 43692.65567		 305.27265			43387.38302		69.17800		324.00000 
 43692.65567		 651.83707			43040.81860		212.13800		875.00000 
 43692.65567		 305.27265			43387.38302		69.17800		324.00000 
 43692.65567		 651.83707			43040.81860		212.13800		875.00000 
 43692.65567		 305.27265			43387.38302		69.17800		324.00000 
 43692.65567		 651.83707			43040.81860		212.13800		875.00000 
 43692.65567		 305.27265			43387.38302		69.17800		324.00000 
 43692.65567		 651.83707			43040.81860		212.13800		875.00000 
 43692.65567		 305.27265			43387.38302		69.17800		324.00000 
 43692.65567		 651.83707			43040.81860		212.13800		875.00000 
 43692.65567		 305.27265			43387.38302		69.17800		324.00000 
 43692.65567		 651.83707			43040.81860		212.13800		875.00000 
 43692.65567		 305.27265			43387.38302		69.17800		324.00000 
 43692.65567		 651.83707			43040.81860		212.13800		875.00000 
 43692.65567		 305.27265			43387.38302		69.17800		324.00000 
 43692.65567		 651.83707			43040.81860		212.13800		875.00000 
 43692.65567		 305.27265			43387.38302		69.17800		324.00000 
 43692.65567		 651.83707			43040.81860		212.13800		875.00000 
 43692.65567		 305.27265			43387.38302		69.17800		324.00000 
 43692.65567		 651.83707			43040.81860		212.13800		875.00000 
 43692.65567		 305.27265			43387.38302		69.17800		324.00000 
 43692.65567		 651.83707			43040.81860		212.13800		875.00000 
 43692.65567		 305.27265			43387.38302		69.17800		324.00000 
 43692.65567		 651.83707			43040.81860		212.13800		875.00000 
 43692.65567		 305.27265			43387.38302		69.17800		324.00000 
 43692.65567		 651.83707			43040.81860		212.13800		875.00000 
 43692.65567		 305.27265			43387.38302		69.17800		324.00000 
 43692.65567		 651.83707			43040.81860		212.13800		875.00000 
 43692.65567		 305.27265			43387.38302		69.17800		324.00000 
 43692.65567		 651.83707			43040.81860		212.13800		875.00000 
 43692.65567		 305.27265			43387.38302		69.17800		324.00000 
 43692.65567		 651.83707			43040.81860		212.13800		875.00000 
 43692.65567		 305.27265			43387.38302		69.17800		324.00000 
 43692.65567		 651.83707			43040.81860		212.13800		875.00000 
 43692.65567		 305.27265			43387.38302		69.17800		324.00000 
 43692.65567		 651.83707			43040.81860		212.13800		875.00000 
 43692.65567		 305.27265			43387.38302		69.17800		324.00000 
 43692.65567		 651.83707			43040.81860		212.13800		875.00000 
 43692.65567		 305.27265			43387.38302		69.17800		324.00000 
 43692.65567		 651.83707			43040.81860		212.13800		875.00000 
 43692.65567		 305.27265			43387.38302		69.17800		324.00000 
 43692.65567		 651.83707			43040.81860		212.13800		875.00000 
 43692.65567		 305.27265			43387.38302		69.17800		324.00000 
 43692.65567		 651.83707			43040.81860		212.13800		875.00000 
 43692.65567		 305.27265			43387.38302		69.17800		324.00000 
 43692.65567		 651.83707			43040.81860		212.13800		875.00000 
 43692.65567		 305.27265			43387.38302		69.17800		324.00000 
 43692.65567		 651.83707			43040.81860		212.13800		875.00000 
 43692.65567		 305.27265			43387.38302		69.17800		324.00000 
 43692.65567		 651.83707			43040.81860		212.13800		875.00000 
 43692.65567		 305.27265			43387.38302		69.17800		324.00000 
 43692.65567		 651.83707			43040.81860		212.13800		875.00000 
 43692.65567		 305.27265			43387.38302		69.17800		324.00000 
 43692.65567		 651.83707			43040.81860		212.13800		875.00000 
 43692.65567		 305.27265			43387.38302		69.17800		324.00000 
 43692.65567		 651.83707			43040.81860		212.13800		875.00000 
 43692.65567		 305.27265			43387.38302		69.17800		324.00000 
 43692.65567		 651.83707			43040.81860		212.13800		875.00000 
 43692.65567		 305.27265			43387.38302		69.17800		324.00000 
 43692.65567		 651.83707			43040.81860		212.13800		875.00000 
 43692.65567		 305.27265			43387.38302		69.17800		324.00000 
 43692.65567		 651.83707			43040.81860		212.13800		875.00000 
 43692.65567		 305.27265			43387.38302		69.17800		324.00000 
 43692.65567		 651.83707			43040.81860		212.13800		875.00000 
 43692.65567		 305.27265			43387.38302		69.17800		324.00000 
 43692.65567		 651.83707			43040.81860		212.13800		875.00000 
 43692.65567		 305.27265			43387.38302		69.17800		324.00000 
 43692.65567		 651.83707			43040.81860		217.97000		875.00000 
 43692.65567		 305.27265			43387.38302		69.17800		324.00000 
 43692.65567		 651.83707			43040.81860		217.97000		875.00000 
 43692.65567		 305.27265			43387.38302		69.17800		324.00000 
 43692.65567		 651.83707			43040.81860		217.97000		875.00000 
 43692.65567		 305.27265			43387.38302		69.17800		324.00000 
 43692.65567		 651.83707			43040.81860		217.97000		875.00000 
 43692.65567		 305.27265			43387.38302		69.17800		324.00000 
 43692.65567		 651.83707			43040.81860		217.97000		875.00000 
 43692.65567		 305.27265			43387.38302		69.17800		324.00000 
 43692.65567		 651.83707			43040.81860		217.97000		875.00000 
 43692.65567		 305.27265			43387.38302		69.17800		324.00000 
 43692.65567		 651.83707			43040.81860		217.97000		875.00000 
 43692.65567		 305.27265			43387.38302		69.17800		324.00000 
 43692.65567		 651.83707			43040.81860		217.97000		875.00000 
 43692.65567		 305.27265			43387.38302		69.17800		324.00000 
 43692.65567		 651.83707			43040.81860		217.97000		875.00000 
 43692.65567		 305.27265			43387.38302		69.17800		324.00000 
 43692.65567		 651.83707			43040.81860		217.97000		875.00000 
 43692.65567		 305.27265			43387.38302		69.17800		324.00000 
 43692.65567		 651.83707			43040.81860		217.97000		875.00000 
 43692.65567		 305.27265			43387.38302		69.17800		324.00000 
 43692.65567		 651.83707			43040.81860		217.97000		875.00000 
 43692.65567		 305.27265			43387.38302		69.17800		324.00000 
 43692.65567		 651.83707			43040.81860		217.97000		875.00000 
 43692.65567		 305.27265			43387.38302		69.17800		324.00000 
 43692.65567		 651.83707			43040.81860		217.97000		875.00000 
 43692.65567		 305.27265			43387.38302		69.17800		324.00000 
 43692.65567		 651.83707			43040.81860		217.97000		875.00000 
 43692.65567		 305.27265			43387.38302		69.17800		324.00000 
 43692.65567		 651.83707			43040.81860		217.97000		875.00000 
 43692.65567		 305.27265			43387.38302		69.17800		324.00000 
 43692.65567		 651.83707			43040.81860		217.97000		875.00000 
 43692.65567		 305.27265			43387.38302		69.17800		324.00000 
 43692.65567		 651.83707			43040.81860		217.97000		875.00000 
 43692.65567		 305.27265			43387.38302		69.17800		324.00000 
 43692.65567		 651.83707			43040.81860		217.97000		875.00000 
 43692.65567		 305.27265			43387.38302		69.17800		324.00000 
 43692.65567		 651.83707			43040.81860		217.97000		875.00000 
 43692.65567		 305.27265			43387.38302		69.17800		324.00000 
 43692.65567		 651.83707			43040.81860		217.97000		875.00000 
 43692.65567		 305.27265			43387.38302		69.17800		324.00000 
 43692.65567		 651.83707			43040.81860		217.97000		875.00000 
 43692.65567		 305.27265			43387.38302		69.17800		324.00000 
 43692.65567		 651.83707			43040.81860		217.97000		875.00000 
 43692.65567		 305.27265			43387.38302		69.17800		324.00000 
 43692.65567		 651.83707			43040.81860		217.97000		875.00000 
 43692.65567		 305.27265			43387.38302		69.17800		324.00000 
 43692.65567		 651.83707			43040.81860		217.97000		875.00000 
 43692.65567		 305.27265			43387.38302		69.17800		324.00000 
 43692.65567		 651.83707			43040.81860		217.97000		875.00000 
 43692.65567		 305.27265			43387.38302		69.17800		324.00000 
 43692.65567		 651.83707			43040.81860		217.97000		875.00000 
 43692.65567		 305.27265			43387.38302		69.17800		324.00000 
 43692.65567		 651.83707			43040.81860		217.97000		875.00000 
 43692.65567		 305.27265			43387.38302		69.17800		324.00000 
 43692.65567		 651.83707			43040.81860		217.97000		875.00000 
 43692.65567		 305.27265			43387.38302		69.17800		324.00000 
 43692.65567		 651.83707			43040.81860		217.97000		875.00000 
 43692.65567		 305.27265			43387.38302		69.17800		324.00000 
 43692.65567		 651.83707			43040.81860		217.97000		875.00000 
 43692.65567		 305.27265			43387.38302		69.17800		324.00000 
 43692.65567		 651.83707			43040.81860		217.97000		875.00000 
 43692.65567		 305.27265			43387.38302		69.17800		324.00000 
 43692.65567		 651.83707			43040.81860		217.97000		875.00000 
 43692.65567		 305.27265			43387.38302		69.17800		324.00000 
 43692.65567		 651.83707			43040.81860		217.97000		875.00000 
 43692.65567		 305.27265			43387.38302		69.17800		324.00000 
 43692.65567		 651.83707			43040.81860		217.97000		875.00000 
 43692.65567		 305.27265			43387.38302		69.17800		324.00000 
 43692.65567		 651.83707			43040.81860		217.97000		875.00000 
 43692.65567		 305.27265			43387.38302		69.17800		324.00000 
 43692.65567		 651.83707			43040.81860		217.97000		875.00000 
 43692.65567		 305.27265			43387.38302		69.17800		324.00000 
 43692.65567		 651.83707			43040.81860		217.97000		875.00000 
 43692.65567		 305.27265			43387.38302		69.17800		324.00000 
 43692.65567		 651.83707			43040.81860		217.97000		875.00000 
 43692.65567		 305.27265			43387.38302		69.17800		324.00000 
 43692.65567		 651.83707			43040.81860		217.97000		875.00000 
 43692.65567		 305.27265			43387.38302		69.17800		324.00000 
 43692.65567		 651.83707			43040.81860		217.97000		875.00000 
 43692.65567		 305.27265			43387.38302		69.17800		324.00000 
 43692.65567		 651.83707			43040.81860		217.97000		875.00000 
 43692.65567		 305.27265			43387.38302		69.17800		324.00000 
 43692.65567		 651.83707			43040.81860		217.97000		875.00000 
 43692.65567		 305.27265			43387.38302		69.17800		324.00000 
 43692.65567		 651.83707			43040.81860		217.97000		875.00000 
 43692.65567		 305.27265			43387.38302		69.17800		324.00000 
 43692.65567		 651.83707			43040.81860		217.97000		875.00000 
 43692.65567		 305.27265			43387.38302		69.17800		324.00000 
 43692.65567		 651.83707			43040.81860		217.97000		875.00000 
 43692.65567		 305.27265			43387.38302		69.17800		324.00000 
 43692.65567		 651.83707			43040.81860		217.97000		875.00000 
 43692.65567		 305.27265			43387.38302		69.17800		324.00000 
 43692.65567		 651.83707			43040.81860		217.97000		875.00000 
 43692.65567		 305.27265			43387.38302		69.17800		324.00000 
 43692.65567		 651.83707			43040.81860		217.97000		875.00000 
 43692.65567		 305.27265			43387.38302		69.17800		324.00000 
 43692.65567		 651.83707			43040.81860		217.97000		875.00000 
 43692.65567		 305.27265			43387.38302		69.17800		324.00000 
 43692.65567		 651.83707			43040.81860		217.97000		875.00000 
 43692.65567		 305.27265			43387.38302		69.17800		324.00000 
 43692.65567		 651.83707			43040.81860		217.97000		875.00000 
 43692.65567		 305.27265			43387.38302		69.17800		324.00000 
 43692.65567		 651.83707			43040.81860		217.97000		875.00000 
 43692.65567		 305.27265			43387.38302		69.17800		324.00000 
 43692.65567		 651.83707			43040.81860		217.97000		875.00000 
 43692.65567		 305.27265			43387.38302		69.17800		324.00000 
 43692.65567		 651.83707			43040.81860		217.97000		875.00000 
 43692.65567		 305.27265			43387.38302		69.17800		324.00000 
 43692.65567		 651.83707			43040.81860		217.97000		875.00000 
 43692.65567		 305.27265			43387.38302		69.17800		324.00000 
 43692.65567		 651.83707			43040.81860		217.97000		875.00000 
 43692.65567		 305.27265			43387.38302		69.17800		324.00000 
 43692.65567		 651.83707			43040.81860		217.97000		875.00000 
 43692.65567		 305.27265			43387.38302		69.17800		324.00000 
 43692.65567		 651.83707			43040.81860		217.97000		875.00000 
 43692.65567		 305.27265			43387.38302		69.17800		324.00000 
 43692.65567		 651.83707			43040.81860		217.97000		875.00000 
 43692.65567		 305.27265			43387.38302		69.17800		324.00000 
 43692.65567		 651.83707			43040.81860		217.97000		875.00000 
 43692.65567		 305.27265			43387.38302		69.17800		324.00000 
 43692.65567		 651.83707			43040.81860		217.97000		875.00000 
 43692.65567		 305.27265			43387.38302		69.17800		324.00000 
 43692.65567		 651.83707			43040.81860		217.97000		875.00000 
 43692.65567		 305.27265			43387.38302		69.17800		324.00000 
 43692.65567		 651.83707			43040.81860		217.97000		875.00000 
 43692.65567		 305.27265			43387.38302		69.17800		324.00000 
 43692.65567		 651.83707			43040.81860		220.90800		875.00000 
 43692.65567		 305.27265			43387.38302		69.17800		324.00000 
 43692.65567		 651.83707			43040.81860		220.90800		875.00000 
 43692.65567		 305.27265			43387.38302		69.17800		324.00000 
 43692.65567		 651.83707			43040.81860		220.90800		875.00000 
 43692.65567		 305.27265			43387.38302		69.17800		324.00000 
 43692.65567		 651.83707			43040.81860		220.90800		875.00000 
 43692.65567		 305.27265			43387.38302		69.17800		324.00000 
 43692.65567		 651.83707			43040.81860		220.90800		875.00000 
 43692.65567		 305.27265			43387.38302		69.17800		324.00000 
 43692.65567		 651.83707			43040.81860		220.90800		875.00000 
 43692.65567		 305.27265			43387.38302		69.17800		324.00000 
 43692.65567		 651.83707			43040.81860		220.90800		875.00000 
 43692.65567		 305.27265			43387.38302		69.17800		324.00000 
 43692.65567		 651.83707			43040.81860		220.90800		875.00000 
 43692.65567		 305.27265			43387.38302		69.17800		324.00000 
 43692.65567		 651.83707			43040.81860		220.90800		875.00000 
 43692.65567		 305.27265			43387.38302		69.17800		324.00000 
 43692.65567		 651.83707			43040.81860		220.90800		875.00000 
 43692.65567		 305.27265			43387.38302		69.17800		324.00000 
 43692.65567		 651.83707			43040.81860		220.90800		875.00000 
 43692.65567		 305.27265			43387.38302		69.17800		324.00000 
 43692.65567		 651.83707			43040.81860		220.90800		875.00000 
 43692.65567		 305.27265			43387.38302		69.17800		324.00000 
 43692.65567		 651.83707			43040.81860		220.90800		875.00000 
 43692.65567		 305.27265			43387.38302		69.17800		324.00000 
 43692.65567		 651.83707			43040.81860		220.90800		875.00000 
 43692.65567		 305.27265			43387.38302		69.17800		324.00000 
 43692.65567		 651.83707			43040.81860		220.90800		875.00000 
 43692.65567		 305.27265			43387.38302		69.17800		324.00000 
 43692.65567		 651.83707			43040.81860		220.90800		875.00000 
 43692.65567		 305.27265			43387.38302		69.17800		324.00000 
 43692.65567		 651.83707			43040.81860		220.90800		875.00000 
 43692.65567		 305.27265			43387.38302		69.17800		324.00000 
 43692.65567		 651.83707			43040.81860		220.90800		875.00000 
 43692.65567		 305.27265			43387.38302		69.17800		324.00000 
 43692.65567		 651.83707			43040.81860		220.90800		875.00000 
 43692.65567		 305.27265			43387.38302		69.17800		324.00000 
 43692.65567		 651.83707			43040.81860		220.90800		875.00000 
 43692.65567		 305.27265			43387.38302		69.17800		324.00000 
 43692.65567		 651.83707			43040.81860		220.90800		875.00000 
 43692.65567		 305.27265			43387.38302		69.17800		324.00000 
 43692.65567		 651.83707			43040.81860		220.90800		875.00000 
 43692.65567		 305.27265			43387.38302		69.17800		324.00000 
 43692.65567		 651.83707			43040.81860		220.90800		875.00000 
 43692.65567		 305.27265			43387.38302		69.17800		324.00000 
 43692.65567		 651.83707			43040.81860		220.90800		875.00000 
 43692.65567		 305.27265			43387.38302		69.17800		324.00000 
 43692.65567		 651.83707			43040.81860		220.90800		875.00000 
 43692.65567		 305.27265			43387.38302		69.17800		324.00000 
 43692.65567		 651.83707			43040.81860		220.90800		875.00000 
 43692.65567		 305.27265			43387.38302		69.17800		324.00000 
 43692.65567		 651.83707			43040.81860		220.90800		875.00000 
 43692.65567		 305.27265			43387.38302		69.17800		324.00000 
 43692.65567		 651.83707			43040.81860		220.90800		875.00000 
 43692.65567		 305.27265			43387.38302		69.17800		324.00000 
 43692.65567		 651.83707			43040.81860		220.90800		875.00000 
 43692.65567		 305.27265			43387.38302		69.17800		324.00000 
 43692.65567		 651.83707			43040.81860		220.90800		875.00000 
 43692.65567		 305.27265			43387.38302		69.17800		324.00000 
 43692.65567		 651.83707			43040.81860		220.90800		875.00000 
 43692.65567		 305.27265			43387.38302		69.17800		324.00000 
 43692.65567		 651.83707			43040.81860		220.90800		875.00000 
 43692.65567		 305.27265			43387.38302		69.17800		324.00000 
 43692.65567		 651.83707			43040.81860		220.90800		875.00000 
 43692.65567		 305.27265			43387.38302		69.17800		324.00000 
 43692.65567		 651.83707			43040.81860		220.90800		875.00000 
 43692.65567		 305.27265			43387.38302		69.17800		324.00000 
 43692.65567		 651.83707			43040.81860		220.90800		875.00000 
 43692.65567		 305.27265			43387.38302		69.17800		324.00000 
 43692.65567		 651.83707			43040.81860		220.90800		875.00000 
 43692.65567		 305.27265			43387.38302		69.17800		324.00000 
 43692.65567		 651.83707			43040.81860		220.90800		875.00000 
 43692.65567		 305.27265			43387.38302		69.17800		324.00000 
 43692.65567		 651.83707			43040.81860		220.90800		875.00000 
 43692.65567		 305.27265			43387.38302		69.17800		324.00000 
 43692.65567		 651.83707			43040.81860		220.90800		875.00000 
 43692.65567		 305.27265			43387.38302		69.17800		324.00000 
 43692.65567		 651.83707			43040.81860		220.90800		875.00000 
 43692.65567		 305.27265			43387.38302		69.17800		324.00000 
 43692.65567		 651.83707			43040.81860		220.90800		875.00000 
 43692.65567		 305.27265			43387.38302		69.17800		324.00000 
 43692.65567		 651.83707			43040.81860		220.90800		875.00000 
 43692.65567		 305.27265			43387.38302		69.17800		324.00000 
 43692.65567		 651.83707			43040.81860		220.90800		875.00000 
 43692.65567		 305.27265			43387.38302		69.17800		324.00000 
 43692.65567		 651.83707			43040.81860		220.90800		875.00000 
 43692.65567		 305.27265			43387.38302		69.17800		324.00000 
 43692.65567		 651.83707			43040.81860		220.90800		875.00000 
 43692.65567		 305.27265			43387.38302		69.17800		324.00000 
 43692.65567		 651.83707			43040.81860		220.90800		875.00000 
 43692.65567		 305.27265			43387.38302		69.17800		324.00000 
 43692.65567		 651.83707			43040.81860		220.90800		875.00000 
 43692.65567		 305.27265			43387.38302		69.17800		324.00000 
 43692.65567		 651.83707			43040.81860		220.90800		875.00000 
 43692.65567		 305.27265			43387.38302		69.17800		324.00000 
 43692.65567		 651.83707			43040.81860		220.90800		875.00000 
 43692.65567		 305.27265			43387.38302		69.17800		324.00000 
 43692.65567		 651.83707			43040.81860		220.90800		875.00000 
 43692.65567		 305.27265			43387.38302		69.17800		324.00000 
 43692.65567		 651.83707			43040.81860		220.90800		875.00000 
 43692.65567		 305.27265			43387.38302		69.17800		324.00000 
 43692.65567		 651.83707			43040.81860		220.90800		875.00000 
 43692.65567		 305.27265			43387.38302		69.17800		324.00000 
 43692.65567		 651.83707			43040.81860		220.90800		875.00000 
 43692.65567		 305.27265			43387.38302		69.17800		324.00000 
 43692.65567		 651.83707			43040.81860		220.90800		875.00000 
 43692.65567		 305.27265			43387.38302		69.17800		324.00000 
 43692.65567		 651.83707			43040.81860		220.90800		875.00000 
 43692.65567		 305.27265			43387.38302		69.17800		324.00000 
 43692.65567		 651.83707			43040.81860		220.90800		875.00000 
 43692.65567		 305.27265			43387.38302		69.17800		324.00000 
 43692.65567		 651.83707			43040.81860		220.90800		875.00000 
 43692.65567		 305.27265			43387.38302		69.17800		324.00000 
 43692.65567		 651.83707			43040.81860		220.90800		875.00000 
 43692.65567		 305.27265			43387.38302		69.17800		324.00000 
 43692.65567		 651.83707			43040.81860		220.90800		875.00000 
 43692.65567		 305.27265			43387.38302		69.17800		324.00000 
 43692.65567		 651.83707			43040.81860		220.90800		875.00000 
 43692.65567		 305.27265			43387.38302		69.17800		324.00000 
 43692.65567		 651.83707			43040.81860		220.90800		875.00000 
 43692.65567		 305.27265			43387.38302		69.17800		324.00000 
 43692.65567		 651.83707			43040.81860		220.90800		875.00000 
 43692.65567		 305.27265			43387.38302		69.17800		324.00000 
 43692.65567		 651.83707			43040.81860		220.90800		875.00000 
 43692.65567		 305.27265			43387.38302		69.17800		324.00000 
 43692.65567		 651.83707			43040.81860		220.90800		875.00000 
 43692.65567		 305.27265			43387.38302		69.17800		324.00000 
 43692.65567		 651.83707			43040.81860		220.90800		875.00000 
 43692.65567		 305.27265			43387.38302		69.17800		324.00000 
 43692.65567		 651.83707			43040.81860		221.10000		875.00000 
 43692.65567		 305.27265			43387.38302		69.17800		324.00000 
 43692.65567		 651.83707			43040.81860		221.10000		875.00000 
 43692.65567		 305.27265			43387.38302		69.17800		324.00000 
 43692.65567		 651.83707			43040.81860		221.10000		875.00000 
 43692.65567		 305.27265			43387.38302		69.17800		324.00000 
 43692.65567		 651.83707			43040.81860		221.10000		875.00000 
 43692.65567		 305.27265			43387.38302		69.17800		324.00000 
 43692.65567		 651.83707			43040.81860		221.10000		875.00000 
 43692.65567		 305.27265			43387.38302		69.17800		324.00000 
 43692.65567		 651.83707			43040.81860		221.10000		875.00000 
 43692.65567		 305.27265			43387.38302		69.17800		324.00000 
 43692.65567		 651.83707			43040.81860		221.10000		875.00000 
 43692.65567		 305.27265			43387.38302		69.17800		324.00000 
 43692.65567		 651.83707			43040.81860		221.10000		875.00000 
 43692.65567		 305.27265			43387.38302		69.17800		324.00000 
 43692.65567		 651.83707			43040.81860		221.10000		875.00000 
 43692.65567		 305.27265			43387.38302		69.17800		324.00000 
 43692.65567		 651.83707			43040.81860		221.10000		875.00000 
 43692.65567		 305.27265			43387.38302		69.17800		324.00000 
 43692.65567		 651.83707			43040.81860		221.10000		875.00000 
 43692.65567		 305.27265			43387.38302		69.17800		324.00000 
 43692.65567		 651.83707			43040.81860		221.10000		875.00000 
 43692.65567		 305.27265			43387.38302		69.17800		324.00000 
 43692.65567		 651.83707			43040.81860		221.10000		875.00000 
 43692.65567		 305.27265			43387.38302		69.17800		324.00000 
 43692.65567		 651.83707			43040.81860		221.10000		875.00000 
 43692.65567		 305.27265			43387.38302		69.17800		324.00000 
 43692.65567		 651.83707			43040.81860		221.10000		875.00000 
 43692.65567		 305.27265			43387.38302		69.17800		324.00000 
 43692.65567		 651.83707			43040.81860		221.10000		875.00000 
 43692.65567		 305.27265			43387.38302		69.17800		324.00000 
 43692.65567		 651.83707			43040.81860		221.10000		875.00000 
 43692.65567		 305.27265			43387.38302		69.17800		324.00000 
 43692.65567		 651.83707			43040.81860		221.10000		875.00000 
 43692.65567		 305.27265			43387.38302		69.17800		324.00000 
 43692.65567		 651.83707			43040.81860		221.10000		875.00000 
 43692.65567		 305.27265			43387.38302		69.17800		324.00000 
 43692.65567		 651.83707			43040.81860		221.10000		875.00000 
 43692.65567		 305.27265			43387.38302		69.17800		324.00000 
 43692.65567		 651.83707			43040.81860		221.10000		875.00000 
 43692.65567		 305.27265			43387.38302		69.17800		324.00000 
 43692.65567		 651.83707			43040.81860		221.10000		875.00000 
 43692.65567		 305.27265			43387.38302		69.17800		324.00000 
 43692.65567		 651.83707			43040.81860		221.10000		875.00000 
 43692.65567		 305.27265			43387.38302		69.17800		324.00000 
 43692.65567		 651.83707			43040.81860		221.10000		875.00000 
 43692.65567		 305.27265			43387.38302		69.17800		324.00000 
 43692.65567		 651.83707			43040.81860		221.10000		875.00000 
 43692.65567		 305.27265			43387.38302		69.17800		324.00000 
 43692.65567		 651.83707			43040.81860		221.10000		875.00000 
 43692.65567		 305.27265			43387.38302		69.17800		324.00000 
 43692.65567		 651.83707			43040.81860		221.10000		875.00000 
 43692.65567		 305.27265			43387.38302		69.17800		324.00000 
 43692.65567		 651.83707			43040.81860		221.10000		875.00000 
 43692.65567		 305.27265			43387.38302		69.17800		324.00000 
 43692.65567		 651.83707			43040.81860		221.10000		875.00000 
 43692.65567		 305.27265			43387.38302		69.17800		324.00000 
 43692.65567		 651.83707			43040.81860		221.10000		875.00000 
 43692.65567		 305.27265			43387.38302		69.17800		324.00000 
 43692.65567		 651.83707			43040.81860		221.10000		875.00000 
 43692.65567		 305.27265			43387.38302		69.17800		324.00000 
 43692.65567		 651.83707			43040.81860		221.10000		875.00000 
 43692.65567		 305.27265			43387.38302		69.17800		324.00000 
 43692.65567		 651.83707			43040.81860		221.10000		875.00000 
 43692.65567		 305.27265			43387.38302		69.17800		324.00000 
 43692.65567		 651.83707			43040.81860		221.10000		875.00000 
 43692.65567		 305.27265			43387.38302		69.17800		324.00000 
 43692.65567		 651.83707			43040.81860		221.10000		875.00000 
 43692.65567		 305.27265			43387.38302		69.17800		324.00000 
 43692.65567		 651.83707			43040.81860		221.10000		875.00000 
 43692.65567		 305.27265			43387.38302		69.17800		324.00000 
 43692.65567		 651.83707			43040.81860		221.10000		875.00000 
 43692.65567		 305.27265			43387.38302		69.17800		324.00000 
 43692.65567		 651.83707			43040.81860		221.10000		875.00000 
 43692.65567		 305.27265			43387.38302		69.17800		324.00000 
 43692.65567		 651.83707			43040.81860		221.10000		875.00000 
 43692.65567		 305.27265			43387.38302		69.17800		324.00000 
 43692.65567		 651.83707			43040.81860		221.10000		875.00000 
 43692.65567		 305.27265			43387.38302		69.17800		324.00000 
 43692.65567		 651.83707			43040.81860		221.10000		875.00000 
 43692.65567		 305.27265			43387.38302		69.17800		324.00000 
 43692.65567		 651.83707			43040.81860		221.10000		875.00000 
 43692.65567		 305.27265			43387.38302		69.17800		324.00000 
 43692.65567		 651.83707			43040.81860		221.10000		875.00000 
 43692.65567		 305.27265			43387.38302		69.17800		324.00000 
 43692.65567		 651.83707			43040.81860		221.10000		875.00000 
 43692.65567		 305.27265			43387.38302		69.17800		324.00000 
 43692.65567		 651.83707			43040.81860		221.10000		875.00000 
 43692.65567		 305.27265			43387.38302		69.17800		324.00000 
 43692.65567		 651.83707			43040.81860		221.10000		875.00000 
 43692.65567		 305.27265			43387.38302		69.17800		324.00000 
 43692.65567		 651.83707			43040.81860		221.10000		875.00000 
 43692.65567		 305.27265			43387.38302		69.17800		324.00000 
 43692.65567		 651.83707			43040.81860		221.10000		875.00000 
 43692.65567		 305.27265			43387.38302		69.17800		324.00000 
 43692.65567		 651.83707			43040.81860		221.10000		875.00000 
 43692.65567		 305.27265			43387.38302		69.17800		324.00000 
 43692.65567		 651.83707			43040.81860		221.10000		875.00000 
 43692.65567		 305.27265			43387.38302		69.17800		324.00000 
 43692.65567		 651.83707			43040.81860		221.10000		875.00000 
 43692.65567		 305.27265			43387.38302		69.17800		324.00000 
 43692.65567		 651.83707			43040.81860		221.10000		875.00000 
 43692.65567		 305.27265			43387.38302		69.17800		324.00000 
 43692.65567		 651.83707			43040.81860		221.10000		875.00000 
 43692.65567		 305.27265			43387.38302		69.17800		324.00000 
 43692.65567		 651.83707			43040.81860		221.10000		875.00000 
 43692.65567		 305.27265			43387.38302		69.17800		324.00000 
 43692.65567		 651.83707			43040.81860		221.10000		875.00000 
 43692.65567		 305.27265			43387.38302		69.17800		324.00000 
 43692.65567		 651.83707			43040.81860		221.10000		875.00000 
 43692.65567		 305.27265			43387.38302		69.17800		324.00000 
 43692.65567		 651.83707			43040.81860		221.10000		875.00000 
 43692.65567		 305.27265			43387.38302		69.17800		324.00000 
 43692.65567		 651.83707			43040.81860		221.10000		875.00000 
 43692.65567		 305.27265			43387.38302		69.17800		324.00000 
 43692.65567		 651.83707			43040.81860		221.10000		875.00000 
 43692.65567		 305.27265			43387.38302		69.17800		324.00000 
 43692.65567		 651.83707			43040.81860		221.10000		875.00000 
 43692.65567		 305.27265			43387.38302		69.17800		324.00000 
 43692.65567		 651.83707			43040.81860		221.10000		875.00000 
 43692.65567		 305.27265			43387.38302		69.17800		324.00000 
 43692.65567		 651.83707			43040.81860		221.10000		875.00000 
 43692.65567		 305.27265			43387.38302		69.17800		324.00000 
 43692.65567		 651.83707			43040.81860		221.10000		875.00000 
 43692.65567		 305.27265			43387.38302		69.17800		324.00000 
 43692.65567		 651.83707			43040.81860		221.10000		875.00000 
 43692.65567		 305.27265			43387.38302		69.17800		324.00000 
 43692.65567		 651.83707			43040.81860		220.50000		875.00000 
 43692.65567		 305.27265			43387.38302		69.17800		324.00000 
 43692.65567		 651.83707			43040.81860		220.50000		875.00000 
 43692.65567		 305.27265			43387.38302		69.17800		324.00000 
 43692.65567		 651.83707			43040.81860		220.50000		875.00000 
 43692.65567		 305.27265			43387.38302		69.17800		324.00000 
 43692.65567		 651.83707			43040.81860		220.50000		875.00000 
 43692.65567		 305.27265			43387.38302		69.17800		324.00000 
 43692.65567		 651.83707			43040.81860		220.50000		875.00000 
 43692.65567		 305.27265			43387.38302		69.17800		324.00000 
 43692.65567		 651.83707			43040.81860		220.50000		875.00000 
 43692.65567		 305.27265			43387.38302		69.17800		324.00000 
 43692.65567		 651.83707			43040.81860		220.50000		875.00000 
 43692.65567		 305.27265			43387.38302		69.17800		324.00000 
 43692.65567		 651.83707			43040.81860		220.50000		875.00000 
 43692.65567		 305.27265			43387.38302		69.17800		324.00000 
 43692.65567		 651.83707			43040.81860		220.50000		875.00000 
 43692.65567		 305.27265			43387.38302		69.17800		324.00000 
 43692.65567		 651.83707			43040.81860		220.50000		875.00000 
 43692.65567		 305.27265			43387.38302		69.17800		324.00000 
 43692.65567		 651.83707			43040.81860		220.50000		875.00000 
 43692.65567		 305.27265			43387.38302		69.17800		324.00000 
 43692.65567		 651.83707			43040.81860		220.50000		875.00000 
 43692.65567		 305.27265			43387.38302		69.17800		324.00000 
 43692.65567		 651.83707			43040.81860		220.50000		875.00000 
 43692.65567		 305.27265			43387.38302		69.17800		324.00000 
 43692.65567		 651.83707			43040.81860		220.50000		875.00000 
 43692.65567		 305.27265			43387.38302		69.17800		324.00000 
 43692.65567		 651.83707			43040.81860		220.50000		875.00000 
 43692.65567		 305.27265			43387.38302		69.17800		324.00000 
 43692.65567		 651.83707			43040.81860		220.50000		875.00000 
 43692.65567		 305.27265			43387.38302		69.17800		324.00000 
 43692.65567		 651.83707			43040.81860		220.50000		875.00000 
 43692.65567		 305.27265			43387.38302		69.17800		324.00000 
 43692.65567		 651.83707			43040.81860		220.50000		875.00000 
 43692.65567		 305.27265			43387.38302		69.17800		324.00000 
 43692.65567		 651.83707			43040.81860		220.50000		875.00000 
 43692.65567		 305.27265			43387.38302		69.17800		324.00000 
 43692.65567		 651.83707			43040.81860		220.50000		875.00000 
 43692.65567		 305.27265			43387.38302		69.17800		324.00000 
 43692.65567		 651.83707			43040.81860		220.50000		875.00000 
 43692.65567		 305.27265			43387.38302		69.17800		324.00000 
 43692.65567		 651.83707			43040.81860		220.50000		875.00000 
 43692.65567		 305.27265			43387.38302		69.17800		324.00000 
 43692.65567		 651.83707			43040.81860		220.50000		875.00000 
 43692.65567		 305.27265			43387.38302		69.17800		324.00000 
 43692.65567		 613.64816			43079.00752		220.50000		875.00000 
 43692.65567		 305.27265			43387.38302		69.17800		324.00000 
 43692.65567		 575.45924			43117.19643		220.50000		875.00000 
 43692.65567		 305.27265			43387.38302		69.17800		324.00000 
 43692.65567		 537.27032			43155.38535		220.50000		875.00000 
 43692.65567		 305.27265			43387.38302		69.17800		324.00000 
 43692.65567		 537.27032			43155.38535		220.50000		875.00000 
 43692.65567		 305.27265			43387.38302		69.17800		324.00000 
 43692.65567		 537.27032			43155.38535		220.50000		875.00000 
 43692.65567		 305.27265			43387.38302		69.17800		324.00000 
 43692.65567		 537.27032			43155.38535		220.50000		875.00000 
 43692.65567		 305.27265			43387.38302		69.17800		324.00000 
 43692.65567		 537.27032			43155.38535		220.50000		875.00000 
 43692.65567		 305.27265			43387.38302		69.17800		324.00000 
 43692.65567		 537.27032			43155.38535		220.50000		875.00000 
 43692.65567		 305.27265			43387.38302		69.17800		324.00000 
 43692.65567		 537.27032			43155.38535		220.50000		875.00000 
 43692.65567		 305.27265			43387.38302		69.17800		324.00000 
 43692.65567		 537.27032			43155.38535		220.50000		875.00000 
 43692.65567		 305.27265			43387.38302		69.17800		324.00000 
 43692.65567		 537.27032			43155.38535		220.50000		875.00000 
 43692.65567		 305.27265			43387.38302		69.17800		324.00000 
 43692.65567		 537.27032			43155.38535		220.50000		875.00000 
 43692.65567		 305.27265			43387.38302		69.17800		324.00000 
 43692.65567		 537.27032			43155.38535		220.50000		875.00000 
 43692.65567		 305.27265			43387.38302		69.17800		324.00000 
 43692.65567		 537.27032			43155.38535		220.50000		875.00000 
 43692.65567		 305.27265			43387.38302		69.17800		324.00000 
 43692.65567		 537.27032			43155.38535		220.50000		875.00000 
 43692.65567		 305.27265			43387.38302		69.17800		324.00000 
 43692.65567		 537.27032			43155.38535		220.50000		875.00000 
 43692.65567		 305.27265			43387.38302		69.17800		324.00000 
 43692.65567		 537.27032			43155.38535		220.50000		875.00000 
 43692.65567		 305.27265			43387.38302		69.17800		324.00000 
 43692.65567		 537.27032			43155.38535		220.50000		875.00000 
 43692.65567		 305.27265			43387.38302		69.17800		324.00000 
 43692.65567		 537.27032			43155.38535		220.50000		875.00000 
 43692.65567		 305.27265			43387.38302		69.17800		324.00000 
 43692.65567		 537.27032			43155.38535		220.50000		875.00000 
 43692.65567		 305.27265			43387.38302		69.17800		324.00000 
 43692.65567		 537.27032			43155.38535		220.50000		875.00000 
 43692.65567		 305.27265			43387.38302		69.17800		324.00000 
 43692.65567		 537.27032			43155.38535		220.50000		875.00000 
 43692.65567		 305.27265			43387.38302		69.17800		324.00000 
 43692.65567		 525.81365			43166.84203		220.50000		875.00000 
 43692.65567		 305.27265			43387.38302		69.17800		324.00000 
 43692.65567		 525.81365			43166.84203		220.50000		875.00000 
 43692.65567		 261.35540			43431.30027		69.17800		324.00000 
 43692.65567		 261.35540			43431.30027		180.32600		875.00000 
 43692.65567		 261.35540			43431.30027		69.17800		324.00000 
