Memory Total (MiB) 	 Memory Used (MiB) 	    Memory Free (MiB) 	 Power Drawed (W) 	 Clocks (Mhz) 	 
 43692.65567		 261.35540			43431.30027		198.75400		875.00000 
 43692.65567		 261.35540			43431.30027		69.16200		324.00000 
 43692.65567		 261.35540			43431.30027		198.75400		875.00000 
 43692.65567		 261.35540			43431.30027		69.16200		324.00000 
 43692.65567		 261.35540			43431.30027		198.75400		875.00000 
 43692.65567		 261.35540			43431.30027		69.16200		324.00000 
 43692.65567		 261.35540			43431.30027		198.75400		875.00000 
 43692.65567		 261.35540			43431.30027		69.16200		324.00000 
 43692.65567		 261.35540			43431.30027		198.75400		875.00000 
 43692.65567		 261.35540			43431.30027		69.16200		324.00000 
 43692.65567		 261.35540			43431.30027		198.75400		875.00000 
 43692.65567		 261.35540			43431.30027		69.16200		324.00000 
 43692.65567		 261.35540			43431.30027		198.75400		875.00000 
 43692.65567		 261.35540			43431.30027		69.16200		324.00000 
 43692.65567		 261.35540			43431.30027		198.75400		875.00000 
 43692.65567		 261.35540			43431.30027		69.16200		324.00000 
 43692.65567		 261.35540			43431.30027		198.75400		875.00000 
 43692.65567		 261.35540			43431.30027		69.16200		324.00000 
 43692.65567		 261.35540			43431.30027		198.75400		875.00000 
 43692.65567		 261.35540			43431.30027		69.16200		324.00000 
 43692.65567		 261.35540			43431.30027		198.75400		875.00000 
 43692.65567		 261.35540			43431.30027		69.16200		324.00000 
 43692.65567		 261.35540			43431.30027		198.75400		875.00000 
 43692.65567		 261.35540			43431.30027		69.16200		324.00000 
 43692.65567		 261.35540			43431.30027		198.75400		875.00000 
 43692.65567		 261.35540			43431.30027		69.16200		324.00000 
 43692.65567		 261.35540			43431.30027		198.75400		875.00000 
 43692.65567		 261.35540			43431.30027		69.16200		324.00000 
 43692.65567		 261.35540			43431.30027		198.75400		875.00000 
 43692.65567		 261.35540			43431.30027		69.16200		324.00000 
 43692.65567		 261.35540			43431.30027		198.75400		875.00000 
 43692.65567		 261.35540			43431.30027		69.16200		324.00000 
 43692.65567		 261.35540			43431.30027		198.75400		875.00000 
 43692.65567		 261.35540			43431.30027		69.16200		324.00000 
 43692.65567		 265.17429			43427.48138		198.75400		875.00000 
 43692.65567		 261.35540			43431.30027		69.16200		324.00000 
 43692.65567		 265.17429			43427.48138		157.44200		875.00000 
 43692.65567		 261.35540			43431.30027		69.16200		324.00000 
 43692.65567		 272.81207			43419.84360		157.44200		875.00000 
 43692.65567		 261.35540			43431.30027		69.16200		324.00000 
 43692.65567		 272.81207			43419.84360		157.44200		875.00000 
 43692.65567		 261.35540			43431.30027		69.16200		324.00000 
 43692.65567		 272.81207			43419.84360		157.44200		875.00000 
 43692.65567		 265.17429			43427.48138		69.16200		324.00000 
 43692.65567		 272.81207			43419.84360		157.44200		875.00000 
 43692.65567		 265.17429			43427.48138		69.16200		324.00000 
 43692.65567		 272.81207			43419.84360		157.44200		875.00000 
 43692.65567		 265.17429			43427.48138		69.16200		324.00000 
 43692.65567		 272.81207			43419.84360		157.44200		875.00000 
 43692.65567		 272.81207			43419.84360		69.16200		324.00000 
 43692.65567		 272.81207			43419.84360		157.44200		875.00000 
 43692.65567		 272.81207			43419.84360		69.16200		324.00000 
 43692.65567		 272.81207			43419.84360		157.44200		875.00000 
 43692.65567		 272.81207			43419.84360		69.16200		324.00000 
 43692.65567		 305.27265			43387.38302		157.44200		875.00000 
 43692.65567		 305.27265			43387.38302		69.16200		324.00000 
 43692.65567		 305.27265			43387.38302		157.44200		875.00000 
 43692.65567		 305.27265			43387.38302		69.16200		324.00000 
 43692.65567		 305.27265			43387.38302		157.44200		875.00000 
 43692.65567		 305.27265			43387.38302		69.16200		324.00000 
 43692.65567		 305.27265			43387.38302		157.44200		875.00000 
 43692.65567		 305.27265			43387.38302		69.16200		324.00000 
 43692.65567		 305.27265			43387.38302		157.44200		875.00000 
 43692.65567		 305.27265			43387.38302		69.16200		324.00000 
 43692.65567		 309.09154			43383.56413		157.44200		875.00000 
 43692.65567		 305.27265			43387.38302		69.16200		324.00000 
 43692.65567		 310.52363			43382.13204		157.44200		875.00000 
 43692.65567		 305.27265			43387.38302		69.16200		324.00000 
 43692.65567		 311.00099			43381.65468		157.44200		875.00000 
 43692.65567		 305.27265			43387.38302		69.16200		324.00000 
 43692.65567		 311.00099			43381.65468		157.44200		875.00000 
 43692.65567		 305.27265			43387.38302		69.16200		324.00000 
 43692.65567		 311.00099			43381.65468		157.44200		875.00000 
 43692.65567		 305.27265			43387.38302		69.16200		324.00000 
 43692.65567		 311.00099			43381.65468		157.44200		875.00000 
 43692.65567		 305.27265			43387.38302		69.16200		324.00000 
 43692.65567		 311.00099			43381.65468		157.44200		875.00000 
 43692.65567		 305.27265			43387.38302		69.16200		324.00000 
 43692.65567		 311.00099			43381.65468		157.44200		875.00000 
 43692.65567		 305.27265			43387.38302		69.16200		324.00000 
 43692.65567		 311.00099			43381.65468		157.44200		875.00000 
 43692.65567		 305.27265			43387.38302		69.16200		324.00000 
 43692.65567		 311.00099			43381.65468		157.44200		875.00000 
 43692.65567		 305.27265			43387.38302		69.16200		324.00000 
 43692.65567		 311.00099			43381.65468		157.44200		875.00000 
 43692.65567		 305.27265			43387.38302		69.16200		324.00000 
 43692.65567		 311.00099			43381.65468		157.44200		875.00000 
 43692.65567		 305.27265			43387.38302		69.16200		324.00000 
 43692.65567		 311.00099			43381.65468		157.44200		875.00000 
 43692.65567		 305.27265			43387.38302		69.16200		324.00000 
 43692.65567		 311.00099			43381.65468		157.44200		875.00000 
 43692.65567		 305.27265			43387.38302		69.16200		324.00000 
 43692.65567		 311.00099			43381.65468		157.44200		875.00000 
 43692.65567		 305.27265			43387.38302		69.16200		324.00000 
 43692.65567		 311.00099			43381.65468		157.44200		875.00000 
 43692.65567		 305.27265			43387.38302		69.16200		324.00000 
 43692.65567		 311.00099			43381.65468		157.44200		875.00000 
 43692.65567		 305.27265			43387.38302		69.16200		324.00000 
 43692.65567		 311.00099			43381.65468		141.03000		875.00000 
 43692.65567		 305.27265			43387.38302		69.16200		324.00000 
 43692.65567		 311.00099			43381.65468		141.03000		875.00000 
 43692.65567		 305.27265			43387.38302		69.16200		324.00000 
 43692.65567		 311.00099			43381.65468		141.03000		875.00000 
 43692.65567		 305.27265			43387.38302		69.16200		324.00000 
 43692.65567		 311.00099			43381.65468		141.03000		875.00000 
 43692.65567		 305.27265			43387.38302		69.16200		324.00000 
 43692.65567		 311.00099			43381.65468		141.03000		875.00000 
 43692.65567		 305.27265			43387.38302		69.16200		324.00000 
 43692.65567		 311.00099			43381.65468		141.03000		875.00000 
 43692.65567		 305.27265			43387.38302		69.16200		324.00000 
 43692.65567		 311.00099			43381.65468		141.03000		875.00000 
 43692.65567		 305.27265			43387.38302		69.16200		324.00000 
 43692.65567		 311.00099			43381.65468		141.03000		875.00000 
 43692.65567		 305.27265			43387.38302		69.16200		324.00000 
 43692.65567		 311.00099			43381.65468		141.03000		875.00000 
 43692.65567		 305.27265			43387.38302		69.16200		324.00000 
 43692.65567		 311.00099			43381.65468		141.03000		875.00000 
 43692.65567		 305.27265			43387.38302		69.16200		324.00000 
 43692.65567		 311.00099			43381.65468		141.03000		875.00000 
 43692.65567		 305.27265			43387.38302		69.16200		324.00000 
 43692.65567		 311.00099			43381.65468		141.03000		875.00000 
 43692.65567		 305.27265			43387.38302		69.16200		324.00000 
 43692.65567		 311.00099			43381.65468		141.03000		875.00000 
 43692.65567		 305.27265			43387.38302		69.16200		324.00000 
 43692.65567		 311.00099			43381.65468		141.03000		875.00000 
 43692.65567		 305.27265			43387.38302		69.16200		324.00000 
 43692.65567		 311.00099			43381.65468		141.03000		875.00000 
 43692.65567		 305.27265			43387.38302		69.16200		324.00000 
 43692.65567		 311.00099			43381.65468		141.03000		875.00000 
 43692.65567		 305.27265			43387.38302		69.16200		324.00000 
 43692.65567		 311.00099			43381.65468		141.03000		875.00000 
 43692.65567		 305.27265			43387.38302		69.16200		324.00000 
 43692.65567		 311.00099			43381.65468		141.03000		875.00000 
 43692.65567		 305.27265			43387.38302		69.16200		324.00000 
 43692.65567		 311.00099			43381.65468		141.03000		875.00000 
 43692.65567		 305.27265			43387.38302		69.16200		324.00000 
 43692.65567		 311.00099			43381.65468		141.03000		875.00000 
 43692.65567		 305.27265			43387.38302		69.16200		324.00000 
 43692.65567		 311.00099			43381.65468		141.03000		875.00000 
 43692.65567		 305.27265			43387.38302		69.16200		324.00000 
 43692.65567		 311.00099			43381.65468		141.03000		875.00000 
 43692.65567		 305.27265			43387.38302		69.16200		324.00000 
 43692.65567		 311.00099			43381.65468		141.03000		875.00000 
 43692.65567		 305.27265			43387.38302		69.16200		324.00000 
 43692.65567		 311.00099			43381.65468		141.03000		875.00000 
 43692.65567		 305.27265			43387.38302		69.16200		324.00000 
 43692.65567		 311.00099			43381.65468		141.03000		875.00000 
 43692.65567		 305.27265			43387.38302		69.16200		324.00000 
 43692.65567		 311.00099			43381.65468		141.03000		875.00000 
 43692.65567		 305.27265			43387.38302		69.16200		324.00000 
 43692.65567		 311.00099			43381.65468		141.03000		875.00000 
 43692.65567		 305.27265			43387.38302		69.16200		324.00000 
 43692.65567		 311.00099			43381.65468		141.03000		875.00000 
 43692.65567		 305.27265			43387.38302		69.16200		324.00000 
 43692.65567		 311.00099			43381.65468		141.03000		875.00000 
 43692.65567		 305.27265			43387.38302		69.16200		324.00000 
 43692.65567		 311.00099			43381.65468		141.03000		875.00000 
 43692.65567		 305.27265			43387.38302		69.16200		324.00000 
 43692.65567		 311.00099			43381.65468		141.03000		875.00000 
 43692.65567		 305.27265			43387.38302		69.16200		324.00000 
 43692.65567		 311.00099			43381.65468		135.62600		875.00000 
 43692.65567		 305.27265			43387.38302		69.16200		324.00000 
 43692.65567		 311.00099			43381.65468		135.62600		875.00000 
 43692.65567		 305.27265			43387.38302		69.16200		324.00000 
 43692.65567		 311.00099			43381.65468		135.62600		875.00000 
 43692.65567		 305.27265			43387.38302		69.16200		324.00000 
 43692.65567		 311.00099			43381.65468		135.62600		875.00000 
 43692.65567		 305.27265			43387.38302		69.16200		324.00000 
 43692.65567		 314.81988			43377.83579		135.62600		875.00000 
 43692.65567		 305.27265			43387.38302		69.16200		324.00000 
 43692.65567		 314.81988			43377.83579		135.62600		875.00000 
 43692.65567		 305.27265			43387.38302		69.16200		324.00000 
 43692.65567		 318.63877			43374.01690		135.62600		875.00000 
 43692.65567		 305.27265			43387.38302		69.16200		324.00000 
 43692.65567		 322.45767			43370.19801		135.62600		875.00000 
 43692.65567		 305.27265			43387.38302		69.16200		324.00000 
 43692.65567		 326.27656			43366.37912		135.62600		875.00000 
 43692.65567		 305.27265			43387.38302		69.16200		324.00000 
 43692.65567		 326.27656			43366.37912		135.62600		875.00000 
 43692.65567		 305.27265			43387.38302		69.16200		324.00000 
 43692.65567		 326.27656			43366.37912		135.62600		875.00000 
 43692.65567		 305.27265			43387.38302		69.16200		324.00000 
 43692.65567		 326.27656			43366.37912		135.62600		875.00000 
 43692.65567		 305.27265			43387.38302		69.16200		324.00000 
 43692.65567		 537.27032			43155.38535		135.62600		875.00000 
 43692.65567		 305.27265			43387.38302		69.16200		324.00000 
 43692.65567		 672.84098			43019.81470		135.62600		875.00000 
 43692.65567		 305.27265			43387.38302		69.16200		324.00000 
 43692.65567		 740.62630			42952.02937		135.62600		875.00000 
 43692.65567		 305.27265			43387.38302		69.16200		324.00000 
 43692.65567		 740.62630			42952.02937		135.62600		875.00000 
 43692.65567		 305.27265			43387.38302		69.16200		324.00000 
 43692.65567		 740.62630			42952.02937		135.62600		875.00000 
 43692.65567		 305.27265			43387.38302		69.16200		324.00000 
 43692.65567		 740.62630			42952.02937		135.62600		875.00000 
 43692.65567		 305.27265			43387.38302		69.16200		324.00000 
 43692.65567		 740.62630			42952.02937		135.62600		875.00000 
 43692.65567		 305.27265			43387.38302		69.16200		324.00000 
 43692.65567		 740.62630			42952.02937		135.62600		875.00000 
 43692.65567		 305.27265			43387.38302		69.16200		324.00000 
 43692.65567		 740.62630			42952.02937		135.62600		875.00000 
 43692.65567		 305.27265			43387.38302		69.16200		324.00000 
 43692.65567		 740.62630			42952.02937		135.62600		875.00000 
 43692.65567		 305.27265			43387.38302		69.16200		324.00000 
 43692.65567		 740.62630			42952.02937		135.62600		875.00000 
 43692.65567		 305.27265			43387.38302		69.16200		324.00000 
 43692.65567		 740.62630			42952.02937		135.62600		875.00000 
 43692.65567		 305.27265			43387.38302		69.16200		324.00000 
 43692.65567		 740.62630			42952.02937		135.62600		875.00000 
 43692.65567		 305.27265			43387.38302		66.20600		324.00000 
 43692.65567		 740.62630			42952.02937		135.62600		875.00000 
 43692.65567		 305.27265			43387.38302		66.20600		324.00000 
 43692.65567		 740.62630			42952.02937		135.62600		875.00000 
 43692.65567		 305.27265			43387.38302		66.20600		324.00000 
 43692.65567		 740.62630			42952.02937		135.62600		875.00000 
 43692.65567		 305.27265			43387.38302		66.20600		324.00000 
 43692.65567		 740.62630			42952.02937		135.62600		875.00000 
 43692.65567		 305.27265			43387.38302		66.20600		324.00000 
 43692.65567		 740.62630			42952.02937		135.62600		875.00000 
 43692.65567		 305.27265			43387.38302		66.20600		324.00000 
 43692.65567		 740.62630			42952.02937		135.62600		875.00000 
 43692.65567		 305.27265			43387.38302		66.20600		324.00000 
 43692.65567		 740.62630			42952.02937		135.62600		875.00000 
 43692.65567		 305.27265			43387.38302		66.20600		324.00000 
 43692.65567		 740.62630			42952.02937		135.62600		875.00000 
 43692.65567		 305.27265			43387.38302		66.20600		324.00000 
 43692.65567		 740.62630			42952.02937		135.62600		875.00000 
 43692.65567		 305.27265			43387.38302		66.20600		324.00000 
 43692.65567		 740.62630			42952.02937		135.62600		875.00000 
 43692.65567		 305.27265			43387.38302		66.20600		324.00000 
 43692.65567		 740.62630			42952.02937		135.62600		875.00000 
 43692.65567		 305.27265			43387.38302		66.20600		324.00000 
 43692.65567		 740.62630			42952.02937		135.62600		875.00000 
 43692.65567		 305.27265			43387.38302		66.20600		324.00000 
 43692.65567		 740.62630			42952.02937		135.62600		875.00000 
 43692.65567		 305.27265			43387.38302		66.20600		324.00000 
 43692.65567		 740.62630			42952.02937		135.62600		875.00000 
 43692.65567		 305.27265			43387.38302		66.20600		324.00000 
 43692.65567		 740.62630			42952.02937		135.62600		875.00000 
 43692.65567		 305.27265			43387.38302		66.20600		324.00000 
 43692.65567		 740.62630			42952.02937		135.62600		875.00000 
 43692.65567		 305.27265			43387.38302		66.20600		324.00000 
 43692.65567		 740.62630			42952.02937		135.62600		875.00000 
 43692.65567		 305.27265			43387.38302		66.20600		324.00000 
 43692.65567		 740.62630			42952.02937		135.62600		875.00000 
 43692.65567		 305.27265			43387.38302		66.20600		324.00000 
 43692.65567		 740.62630			42952.02937		135.62600		875.00000 
 43692.65567		 305.27265			43387.38302		66.20600		324.00000 
 43692.65567		 740.62630			42952.02937		135.62600		875.00000 
 43692.65567		 305.27265			43387.38302		66.20600		324.00000 
 43692.65567		 740.62630			42952.02937		135.62600		875.00000 
 43692.65567		 305.27265			43387.38302		66.20600		324.00000 
 43692.65567		 740.62630			42952.02937		135.62600		875.00000 
 43692.65567		 305.27265			43387.38302		66.20600		324.00000 
 43692.65567		 740.62630			42952.02937		135.62600		875.00000 
 43692.65567		 305.27265			43387.38302		66.20600		324.00000 
 43692.65567		 740.62630			42952.02937		135.62600		875.00000 
 43692.65567		 305.27265			43387.38302		66.20600		324.00000 
 43692.65567		 740.62630			42952.02937		135.62600		875.00000 
 43692.65567		 305.27265			43387.38302		66.20600		324.00000 
 43692.65567		 740.62630			42952.02937		135.62600		875.00000 
 43692.65567		 305.27265			43387.38302		66.20600		324.00000 
 43692.65567		 740.62630			42952.02937		135.62600		875.00000 
 43692.65567		 305.27265			43387.38302		66.20600		324.00000 
 43692.65567		 740.62630			42952.02937		135.62600		875.00000 
 43692.65567		 305.27265			43387.38302		66.20600		324.00000 
 43692.65567		 740.62630			42952.02937		135.62600		875.00000 
 43692.65567		 305.27265			43387.38302		66.20600		324.00000 
 43692.65567		 740.62630			42952.02937		135.62600		875.00000 
 43692.65567		 305.27265			43387.38302		66.20600		324.00000 
 43692.65567		 740.62630			42952.02937		179.23800		875.00000 
 43692.65567		 305.27265			43387.38302		66.20600		324.00000 
 43692.65567		 740.62630			42952.02937		179.23800		875.00000 
 43692.65567		 305.27265			43387.38302		66.20600		324.00000 
 43692.65567		 740.62630			42952.02937		179.23800		875.00000 
 43692.65567		 305.27265			43387.38302		66.20600		324.00000 
 43692.65567		 740.62630			42952.02937		179.23800		875.00000 
 43692.65567		 305.27265			43387.38302		66.20600		324.00000 
 43692.65567		 740.62630			42952.02937		179.23800		875.00000 
 43692.65567		 305.27265			43387.38302		66.20600		324.00000 
 43692.65567		 740.62630			42952.02937		179.23800		875.00000 
 43692.65567		 305.27265			43387.38302		66.20600		324.00000 
 43692.65567		 740.62630			42952.02937		179.23800		875.00000 
 43692.65567		 305.27265			43387.38302		66.20600		324.00000 
 43692.65567		 740.62630			42952.02937		179.23800		875.00000 
 43692.65567		 305.27265			43387.38302		66.20600		324.00000 
 43692.65567		 740.62630			42952.02937		179.23800		875.00000 
 43692.65567		 305.27265			43387.38302		66.20600		324.00000 
 43692.65567		 740.62630			42952.02937		179.23800		875.00000 
 43692.65567		 305.27265			43387.38302		66.20600		324.00000 
 43692.65567		 740.62630			42952.02937		179.23800		875.00000 
 43692.65567		 305.27265			43387.38302		66.20600		324.00000 
 43692.65567		 740.62630			42952.02937		179.23800		875.00000 
 43692.65567		 305.27265			43387.38302		66.20600		324.00000 
 43692.65567		 740.62630			42952.02937		179.23800		875.00000 
 43692.65567		 305.27265			43387.38302		66.20600		324.00000 
 43692.65567		 740.62630			42952.02937		179.23800		875.00000 
 43692.65567		 305.27265			43387.38302		66.20600		324.00000 
 43692.65567		 740.62630			42952.02937		179.23800		875.00000 
 43692.65567		 305.27265			43387.38302		66.20600		324.00000 
 43692.65567		 740.62630			42952.02937		179.23800		875.00000 
 43692.65567		 305.27265			43387.38302		66.20600		324.00000 
 43692.65567		 740.62630			42952.02937		179.23800		875.00000 
 43692.65567		 305.27265			43387.38302		66.20600		324.00000 
 43692.65567		 740.62630			42952.02937		179.23800		875.00000 
 43692.65567		 305.27265			43387.38302		66.20600		324.00000 
 43692.65567		 740.62630			42952.02937		179.23800		875.00000 
 43692.65567		 305.27265			43387.38302		66.20600		324.00000 
 43692.65567		 740.62630			42952.02937		179.23800		875.00000 
 43692.65567		 305.27265			43387.38302		66.20600		324.00000 
 43692.65567		 740.62630			42952.02937		179.23800		875.00000 
 43692.65567		 305.27265			43387.38302		66.20600		324.00000 
 43692.65567		 740.62630			42952.02937		179.23800		875.00000 
 43692.65567		 305.27265			43387.38302		66.20600		324.00000 
 43692.65567		 740.62630			42952.02937		179.23800		875.00000 
 43692.65567		 305.27265			43387.38302		66.20600		324.00000 
 43692.65567		 740.62630			42952.02937		179.23800		875.00000 
 43692.65567		 305.27265			43387.38302		66.20600		324.00000 
 43692.65567		 740.62630			42952.02937		179.23800		875.00000 
 43692.65567		 305.27265			43387.38302		66.20600		324.00000 
 43692.65567		 740.62630			42952.02937		179.23800		875.00000 
 43692.65567		 305.27265			43387.38302		66.20600		324.00000 
 43692.65567		 740.62630			42952.02937		179.23800		875.00000 
 43692.65567		 305.27265			43387.38302		66.20600		324.00000 
 43692.65567		 740.62630			42952.02937		179.23800		875.00000 
 43692.65567		 305.27265			43387.38302		66.20600		324.00000 
 43692.65567		 740.62630			42952.02937		179.23800		875.00000 
 43692.65567		 305.27265			43387.38302		66.20600		324.00000 
 43692.65567		 740.62630			42952.02937		179.23800		875.00000 
 43692.65567		 305.27265			43387.38302		66.20600		324.00000 
 43692.65567		 740.62630			42952.02937		179.23800		875.00000 
 43692.65567		 305.27265			43387.38302		66.20600		324.00000 
 43692.65567		 740.62630			42952.02937		179.23800		875.00000 
 43692.65567		 305.27265			43387.38302		66.20600		324.00000 
 43692.65567		 740.62630			42952.02937		179.23800		875.00000 
 43692.65567		 305.27265			43387.38302		66.20600		324.00000 
 43692.65567		 740.62630			42952.02937		179.23800		875.00000 
 43692.65567		 305.27265			43387.38302		66.20600		324.00000 
 43692.65567		 740.62630			42952.02937		179.23800		875.00000 
 43692.65567		 305.27265			43387.38302		66.20600		324.00000 
 43692.65567		 740.62630			42952.02937		179.23800		875.00000 
 43692.65567		 305.27265			43387.38302		66.20600		324.00000 
 43692.65567		 740.62630			42952.02937		179.23800		875.00000 
 43692.65567		 305.27265			43387.38302		66.20600		324.00000 
 43692.65567		 740.62630			42952.02937		179.23800		875.00000 
 43692.65567		 305.27265			43387.38302		66.20600		324.00000 
 43692.65567		 740.62630			42952.02937		179.23800		875.00000 
 43692.65567		 305.27265			43387.38302		66.20600		324.00000 
 43692.65567		 740.62630			42952.02937		179.23800		875.00000 
 43692.65567		 305.27265			43387.38302		66.20600		324.00000 
 43692.65567		 740.62630			42952.02937		179.23800		875.00000 
 43692.65567		 305.27265			43387.38302		66.20600		324.00000 
 43692.65567		 740.62630			42952.02937		179.23800		875.00000 
 43692.65567		 305.27265			43387.38302		66.20600		324.00000 
 43692.65567		 740.62630			42952.02937		179.23800		875.00000 
 43692.65567		 305.27265			43387.38302		66.20600		324.00000 
 43692.65567		 740.62630			42952.02937		179.23800		875.00000 
 43692.65567		 305.27265			43387.38302		66.20600		324.00000 
 43692.65567		 740.62630			42952.02937		179.23800		875.00000 
 43692.65567		 305.27265			43387.38302		66.20600		324.00000 
 43692.65567		 740.62630			42952.02937		179.23800		875.00000 
 43692.65567		 305.27265			43387.38302		66.20600		324.00000 
 43692.65567		 740.62630			42952.02937		179.23800		875.00000 
 43692.65567		 305.27265			43387.38302		66.20600		324.00000 
 43692.65567		 740.62630			42952.02937		179.23800		875.00000 
 43692.65567		 305.27265			43387.38302		66.20600		324.00000 
 43692.65567		 740.62630			42952.02937		179.23800		875.00000 
 43692.65567		 305.27265			43387.38302		66.20600		324.00000 
 43692.65567		 740.62630			42952.02937		179.23800		875.00000 
 43692.65567		 305.27265			43387.38302		66.20600		324.00000 
 43692.65567		 740.62630			42952.02937		179.23800		875.00000 
 43692.65567		 305.27265			43387.38302		66.20600		324.00000 
 43692.65567		 740.62630			42952.02937		179.23800		875.00000 
 43692.65567		 305.27265			43387.38302		66.20600		324.00000 
 43692.65567		 740.62630			42952.02937		179.23800		875.00000 
 43692.65567		 305.27265			43387.38302		66.20600		324.00000 
 43692.65567		 740.62630			42952.02937		179.23800		875.00000 
 43692.65567		 305.27265			43387.38302		66.20600		324.00000 
 43692.65567		 740.62630			42952.02937		179.23800		875.00000 
 43692.65567		 305.27265			43387.38302		66.20600		324.00000 
 43692.65567		 740.62630			42952.02937		179.23800		875.00000 
 43692.65567		 305.27265			43387.38302		66.20600		324.00000 
 43692.65567		 740.62630			42952.02937		179.23800		875.00000 
 43692.65567		 305.27265			43387.38302		66.20600		324.00000 
 43692.65567		 740.62630			42952.02937		179.23800		875.00000 
 43692.65567		 305.27265			43387.38302		66.20600		324.00000 
 43692.65567		 740.62630			42952.02937		179.23800		875.00000 
 43692.65567		 305.27265			43387.38302		66.20600		324.00000 
 43692.65567		 740.62630			42952.02937		179.23800		875.00000 
 43692.65567		 305.27265			43387.38302		66.20600		324.00000 
 43692.65567		 740.62630			42952.02937		179.23800		875.00000 
 43692.65567		 305.27265			43387.38302		66.20600		324.00000 
 43692.65567		 740.62630			42952.02937		179.23800		875.00000 
 43692.65567		 305.27265			43387.38302		66.20600		324.00000 
 43692.65567		 740.62630			42952.02937		179.23800		875.00000 
 43692.65567		 305.27265			43387.38302		66.20600		324.00000 
 43692.65567		 740.62630			42952.02937		179.23800		875.00000 
 43692.65567		 305.27265			43387.38302		66.20600		324.00000 
 43692.65567		 740.62630			42952.02937		207.15600		875.00000 
 43692.65567		 305.27265			43387.38302		66.20600		324.00000 
 43692.65567		 740.62630			42952.02937		207.15600		875.00000 
 43692.65567		 305.27265			43387.38302		66.20600		324.00000 
 43692.65567		 740.62630			42952.02937		207.15600		875.00000 
 43692.65567		 305.27265			43387.38302		66.20600		324.00000 
 43692.65567		 740.62630			42952.02937		207.15600		875.00000 
 43692.65567		 305.27265			43387.38302		66.20600		324.00000 
 43692.65567		 740.62630			42952.02937		207.15600		875.00000 
 43692.65567		 305.27265			43387.38302		66.20600		324.00000 
 43692.65567		 740.62630			42952.02937		207.15600		875.00000 
 43692.65567		 305.27265			43387.38302		66.20600		324.00000 
 43692.65567		 740.62630			42952.02937		207.15600		875.00000 
 43692.65567		 305.27265			43387.38302		66.20600		324.00000 
 43692.65567		 740.62630			42952.02937		207.15600		875.00000 
 43692.65567		 305.27265			43387.38302		66.20600		324.00000 
 43692.65567		 740.62630			42952.02937		207.15600		875.00000 
 43692.65567		 305.27265			43387.38302		66.20600		324.00000 
 43692.65567		 740.62630			42952.02937		207.15600		875.00000 
 43692.65567		 305.27265			43387.38302		66.20600		324.00000 
 43692.65567		 740.62630			42952.02937		207.15600		875.00000 
 43692.65567		 305.27265			43387.38302		66.20600		324.00000 
 43692.65567		 740.62630			42952.02937		207.15600		875.00000 
 43692.65567		 305.27265			43387.38302		66.20600		324.00000 
 43692.65567		 740.62630			42952.02937		207.15600		875.00000 
 43692.65567		 305.27265			43387.38302		66.20600		324.00000 
 43692.65567		 740.62630			42952.02937		207.15600		875.00000 
 43692.65567		 305.27265			43387.38302		66.20600		324.00000 
 43692.65567		 740.62630			42952.02937		207.15600		875.00000 
 43692.65567		 305.27265			43387.38302		66.20600		324.00000 
 43692.65567		 740.62630			42952.02937		207.15600		875.00000 
 43692.65567		 305.27265			43387.38302		66.20600		324.00000 
 43692.65567		 740.62630			42952.02937		207.15600		875.00000 
 43692.65567		 305.27265			43387.38302		66.20600		324.00000 
 43692.65567		 740.62630			42952.02937		207.15600		875.00000 
 43692.65567		 305.27265			43387.38302		66.20600		324.00000 
 43692.65567		 740.62630			42952.02937		207.15600		875.00000 
 43692.65567		 305.27265			43387.38302		66.20600		324.00000 
 43692.65567		 740.62630			42952.02937		207.15600		875.00000 
 43692.65567		 305.27265			43387.38302		66.20600		324.00000 
 43692.65567		 740.62630			42952.02937		207.15600		875.00000 
 43692.65567		 305.27265			43387.38302		66.20600		324.00000 
 43692.65567		 740.62630			42952.02937		207.15600		875.00000 
 43692.65567		 305.27265			43387.38302		66.20600		324.00000 
 43692.65567		 740.62630			42952.02937		207.15600		875.00000 
 43692.65567		 305.27265			43387.38302		66.20600		324.00000 
 43692.65567		 740.62630			42952.02937		207.15600		875.00000 
 43692.65567		 305.27265			43387.38302		66.20600		324.00000 
 43692.65567		 740.62630			42952.02937		207.15600		875.00000 
 43692.65567		 305.27265			43387.38302		66.20600		324.00000 
 43692.65567		 740.62630			42952.02937		207.15600		875.00000 
 43692.65567		 305.27265			43387.38302		66.20600		324.00000 
 43692.65567		 740.62630			42952.02937		207.15600		875.00000 
 43692.65567		 305.27265			43387.38302		66.20600		324.00000 
 43692.65567		 740.62630			42952.02937		207.15600		875.00000 
 43692.65567		 305.27265			43387.38302		66.20600		324.00000 
 43692.65567		 740.62630			42952.02937		207.15600		875.00000 
 43692.65567		 305.27265			43387.38302		66.20600		324.00000 
 43692.65567		 740.62630			42952.02937		207.15600		875.00000 
 43692.65567		 305.27265			43387.38302		66.20600		324.00000 
 43692.65567		 740.62630			42952.02937		207.15600		875.00000 
 43692.65567		 305.27265			43387.38302		66.20600		324.00000 
 43692.65567		 740.62630			42952.02937		207.15600		875.00000 
 43692.65567		 305.27265			43387.38302		66.20600		324.00000 
 43692.65567		 740.62630			42952.02937		207.15600		875.00000 
 43692.65567		 305.27265			43387.38302		66.20600		324.00000 
 43692.65567		 740.62630			42952.02937		207.15600		875.00000 
 43692.65567		 305.27265			43387.38302		66.20600		324.00000 
 43692.65567		 740.62630			42952.02937		207.15600		875.00000 
 43692.65567		 305.27265			43387.38302		66.20600		324.00000 
 43692.65567		 740.62630			42952.02937		207.15600		875.00000 
 43692.65567		 305.27265			43387.38302		66.20600		324.00000 
 43692.65567		 740.62630			42952.02937		207.15600		875.00000 
 43692.65567		 305.27265			43387.38302		66.20600		324.00000 
 43692.65567		 740.62630			42952.02937		207.15600		875.00000 
 43692.65567		 305.27265			43387.38302		66.20600		324.00000 
 43692.65567		 740.62630			42952.02937		207.15600		875.00000 
 43692.65567		 305.27265			43387.38302		66.20600		324.00000 
 43692.65567		 740.62630			42952.02937		207.15600		875.00000 
 43692.65567		 305.27265			43387.38302		66.20600		324.00000 
 43692.65567		 740.62630			42952.02937		207.15600		875.00000 
 43692.65567		 305.27265			43387.38302		66.20600		324.00000 
 43692.65567		 740.62630			42952.02937		207.15600		875.00000 
 43692.65567		 305.27265			43387.38302		66.20600		324.00000 
 43692.65567		 740.62630			42952.02937		207.15600		875.00000 
 43692.65567		 305.27265			43387.38302		66.20600		324.00000 
 43692.65567		 740.62630			42952.02937		207.15600		875.00000 
 43692.65567		 305.27265			43387.38302		66.20600		324.00000 
 43692.65567		 740.62630			42952.02937		207.15600		875.00000 
 43692.65567		 305.27265			43387.38302		66.20600		324.00000 
 43692.65567		 740.62630			42952.02937		207.15600		875.00000 
 43692.65567		 305.27265			43387.38302		66.20600		324.00000 
 43692.65567		 740.62630			42952.02937		207.15600		875.00000 
 43692.65567		 305.27265			43387.38302		66.20600		324.00000 
 43692.65567		 740.62630			42952.02937		207.15600		875.00000 
 43692.65567		 305.27265			43387.38302		66.20600		324.00000 
 43692.65567		 740.62630			42952.02937		207.15600		875.00000 
 43692.65567		 305.27265			43387.38302		66.20600		324.00000 
 43692.65567		 740.62630			42952.02937		207.15600		875.00000 
 43692.65567		 305.27265			43387.38302		66.20600		324.00000 
 43692.65567		 740.62630			42952.02937		207.15600		875.00000 
 43692.65567		 305.27265			43387.38302		66.20600		324.00000 
 43692.65567		 740.62630			42952.02937		207.15600		875.00000 
 43692.65567		 305.27265			43387.38302		66.20600		324.00000 
 43692.65567		 740.62630			42952.02937		207.15600		875.00000 
 43692.65567		 305.27265			43387.38302		66.20600		324.00000 
 43692.65567		 740.62630			42952.02937		207.15600		875.00000 
 43692.65567		 305.27265			43387.38302		66.20600		324.00000 
 43692.65567		 740.62630			42952.02937		207.15600		875.00000 
 43692.65567		 305.27265			43387.38302		66.20600		324.00000 
 43692.65567		 740.62630			42952.02937		207.15600		875.00000 
 43692.65567		 305.27265			43387.38302		66.20600		324.00000 
 43692.65567		 740.62630			42952.02937		207.15600		875.00000 
 43692.65567		 305.27265			43387.38302		66.20600		324.00000 
 43692.65567		 740.62630			42952.02937		207.15600		875.00000 
 43692.65567		 305.27265			43387.38302		66.20600		324.00000 
 43692.65567		 740.62630			42952.02937		207.15600		875.00000 
 43692.65567		 305.27265			43387.38302		66.20600		324.00000 
 43692.65567		 740.62630			42952.02937		207.15600		875.00000 
 43692.65567		 305.27265			43387.38302		66.20600		324.00000 
 43692.65567		 740.62630			42952.02937		207.15600		875.00000 
 43692.65567		 305.27265			43387.38302		66.20600		324.00000 
 43692.65567		 740.62630			42952.02937		207.15600		875.00000 
 43692.65567		 305.27265			43387.38302		66.20600		324.00000 
 43692.65567		 740.62630			42952.02937		207.15600		875.00000 
 43692.65567		 305.27265			43387.38302		66.20600		324.00000 
 43692.65567		 740.62630			42952.02937		207.15600		875.00000 
 43692.65567		 305.27265			43387.38302		66.20600		324.00000 
 43692.65567		 740.62630			42952.02937		207.15600		875.00000 
 43692.65567		 305.27265			43387.38302		66.20600		324.00000 
 43692.65567		 740.62630			42952.02937		218.72400		875.00000 
 43692.65567		 305.27265			43387.38302		66.20600		324.00000 
 43692.65567		 740.62630			42952.02937		218.72400		875.00000 
 43692.65567		 305.27265			43387.38302		66.20600		324.00000 
 43692.65567		 740.62630			42952.02937		218.72400		875.00000 
 43692.65567		 305.27265			43387.38302		66.20600		324.00000 
 43692.65567		 740.62630			42952.02937		218.72400		875.00000 
 43692.65567		 305.27265			43387.38302		66.20600		324.00000 
 43692.65567		 740.62630			42952.02937		218.72400		875.00000 
 43692.65567		 305.27265			43387.38302		66.20600		324.00000 
 43692.65567		 740.62630			42952.02937		218.72400		875.00000 
 43692.65567		 305.27265			43387.38302		66.20600		324.00000 
 43692.65567		 740.62630			42952.02937		218.72400		875.00000 
 43692.65567		 305.27265			43387.38302		66.20600		324.00000 
 43692.65567		 740.62630			42952.02937		218.72400		875.00000 
 43692.65567		 305.27265			43387.38302		66.20600		324.00000 
 43692.65567		 740.62630			42952.02937		218.72400		875.00000 
 43692.65567		 305.27265			43387.38302		66.20600		324.00000 
 43692.65567		 740.62630			42952.02937		218.72400		875.00000 
 43692.65567		 305.27265			43387.38302		66.20600		324.00000 
 43692.65567		 740.62630			42952.02937		218.72400		875.00000 
 43692.65567		 305.27265			43387.38302		66.20600		324.00000 
 43692.65567		 740.62630			42952.02937		218.72400		875.00000 
 43692.65567		 305.27265			43387.38302		66.20600		324.00000 
 43692.65567		 740.62630			42952.02937		218.72400		875.00000 
 43692.65567		 305.27265			43387.38302		66.20600		324.00000 
 43692.65567		 740.62630			42952.02937		218.72400		875.00000 
 43692.65567		 305.27265			43387.38302		66.20600		324.00000 
 43692.65567		 740.62630			42952.02937		218.72400		875.00000 
 43692.65567		 305.27265			43387.38302		66.20600		324.00000 
 43692.65567		 740.62630			42952.02937		218.72400		875.00000 
 43692.65567		 305.27265			43387.38302		66.20600		324.00000 
 43692.65567		 740.62630			42952.02937		218.72400		875.00000 
 43692.65567		 305.27265			43387.38302		66.20600		324.00000 
 43692.65567		 740.62630			42952.02937		218.72400		875.00000 
 43692.65567		 305.27265			43387.38302		66.20600		324.00000 
 43692.65567		 740.62630			42952.02937		218.72400		875.00000 
 43692.65567		 305.27265			43387.38302		66.20600		324.00000 
 43692.65567		 740.62630			42952.02937		218.72400		875.00000 
 43692.65567		 305.27265			43387.38302		66.20600		324.00000 
 43692.65567		 740.62630			42952.02937		218.72400		875.00000 
 43692.65567		 305.27265			43387.38302		66.20600		324.00000 
 43692.65567		 740.62630			42952.02937		218.72400		875.00000 
 43692.65567		 305.27265			43387.38302		66.20600		324.00000 
 43692.65567		 740.62630			42952.02937		218.72400		875.00000 
 43692.65567		 305.27265			43387.38302		66.20600		324.00000 
 43692.65567		 740.62630			42952.02937		218.72400		875.00000 
 43692.65567		 305.27265			43387.38302		66.20600		324.00000 
 43692.65567		 740.62630			42952.02937		218.72400		875.00000 
 43692.65567		 305.27265			43387.38302		66.20600		324.00000 
 43692.65567		 740.62630			42952.02937		218.72400		875.00000 
 43692.65567		 305.27265			43387.38302		66.20600		324.00000 
 43692.65567		 740.62630			42952.02937		218.72400		875.00000 
 43692.65567		 305.27265			43387.38302		66.20600		324.00000 
 43692.65567		 740.62630			42952.02937		218.72400		875.00000 
 43692.65567		 305.27265			43387.38302		66.20600		324.00000 
 43692.65567		 740.62630			42952.02937		218.72400		875.00000 
 43692.65567		 305.27265			43387.38302		66.20600		324.00000 
 43692.65567		 740.62630			42952.02937		218.72400		875.00000 
 43692.65567		 305.27265			43387.38302		66.20600		324.00000 
 43692.65567		 740.62630			42952.02937		218.72400		875.00000 
 43692.65567		 305.27265			43387.38302		66.20600		324.00000 
 43692.65567		 740.62630			42952.02937		218.72400		875.00000 
 43692.65567		 305.27265			43387.38302		66.20600		324.00000 
 43692.65567		 740.62630			42952.02937		218.72400		875.00000 
 43692.65567		 305.27265			43387.38302		66.20600		324.00000 
 43692.65567		 740.62630			42952.02937		218.72400		875.00000 
 43692.65567		 305.27265			43387.38302		66.20600		324.00000 
 43692.65567		 740.62630			42952.02937		218.72400		875.00000 
 43692.65567		 305.27265			43387.38302		66.20600		324.00000 
 43692.65567		 740.62630			42952.02937		218.72400		875.00000 
 43692.65567		 305.27265			43387.38302		66.20600		324.00000 
 43692.65567		 740.62630			42952.02937		218.72400		875.00000 
 43692.65567		 305.27265			43387.38302		66.20600		324.00000 
 43692.65567		 740.62630			42952.02937		218.72400		875.00000 
 43692.65567		 305.27265			43387.38302		66.20600		324.00000 
 43692.65567		 740.62630			42952.02937		218.72400		875.00000 
 43692.65567		 305.27265			43387.38302		66.20600		324.00000 
 43692.65567		 740.62630			42952.02937		218.72400		875.00000 
 43692.65567		 305.27265			43387.38302		66.20600		324.00000 
 43692.65567		 740.62630			42952.02937		218.72400		875.00000 
 43692.65567		 305.27265			43387.38302		66.20600		324.00000 
 43692.65567		 740.62630			42952.02937		218.72400		875.00000 
 43692.65567		 305.27265			43387.38302		66.20600		324.00000 
 43692.65567		 740.62630			42952.02937		218.72400		875.00000 
 43692.65567		 305.27265			43387.38302		66.20600		324.00000 
 43692.65567		 740.62630			42952.02937		218.72400		875.00000 
 43692.65567		 305.27265			43387.38302		66.20600		324.00000 
 43692.65567		 740.62630			42952.02937		218.72400		875.00000 
 43692.65567		 305.27265			43387.38302		66.20600		324.00000 
 43692.65567		 740.62630			42952.02937		218.72400		875.00000 
 43692.65567		 305.27265			43387.38302		66.20600		324.00000 
 43692.65567		 740.62630			42952.02937		218.72400		875.00000 
 43692.65567		 305.27265			43387.38302		66.20600		324.00000 
 43692.65567		 740.62630			42952.02937		218.72400		875.00000 
 43692.65567		 305.27265			43387.38302		66.20600		324.00000 
 43692.65567		 740.62630			42952.02937		218.72400		875.00000 
 43692.65567		 305.27265			43387.38302		66.20600		324.00000 
 43692.65567		 740.62630			42952.02937		218.72400		875.00000 
 43692.65567		 305.27265			43387.38302		66.20600		324.00000 
 43692.65567		 740.62630			42952.02937		218.72400		875.00000 
 43692.65567		 305.27265			43387.38302		66.20600		324.00000 
 43692.65567		 740.62630			42952.02937		218.72400		875.00000 
 43692.65567		 305.27265			43387.38302		66.20600		324.00000 
 43692.65567		 740.62630			42952.02937		218.72400		875.00000 
 43692.65567		 305.27265			43387.38302		66.20600		324.00000 
 43692.65567		 740.62630			42952.02937		218.72400		875.00000 
 43692.65567		 305.27265			43387.38302		66.20600		324.00000 
 43692.65567		 740.62630			42952.02937		218.72400		875.00000 
 43692.65567		 305.27265			43387.38302		66.20600		324.00000 
 43692.65567		 740.62630			42952.02937		218.72400		875.00000 
 43692.65567		 305.27265			43387.38302		66.20600		324.00000 
 43692.65567		 740.62630			42952.02937		218.72400		875.00000 
 43692.65567		 305.27265			43387.38302		66.20600		324.00000 
 43692.65567		 740.62630			42952.02937		218.72400		875.00000 
 43692.65567		 305.27265			43387.38302		66.20600		324.00000 
 43692.65567		 740.62630			42952.02937		218.72400		875.00000 
 43692.65567		 305.27265			43387.38302		66.20600		324.00000 
 43692.65567		 740.62630			42952.02937		218.72400		875.00000 
 43692.65567		 305.27265			43387.38302		66.20600		324.00000 
 43692.65567		 740.62630			42952.02937		218.72400		875.00000 
 43692.65567		 305.27265			43387.38302		66.20600		324.00000 
 43692.65567		 740.62630			42952.02937		218.72400		875.00000 
 43692.65567		 305.27265			43387.38302		66.20600		324.00000 
 43692.65567		 740.62630			42952.02937		218.72400		875.00000 
 43692.65567		 305.27265			43387.38302		66.20600		324.00000 
 43692.65567		 740.62630			42952.02937		218.72400		875.00000 
 43692.65567		 305.27265			43387.38302		66.20600		324.00000 
 43692.65567		 740.62630			42952.02937		223.75200		875.00000 
 43692.65567		 305.27265			43387.38302		66.20600		324.00000 
 43692.65567		 740.62630			42952.02937		223.75200		875.00000 
 43692.65567		 305.27265			43387.38302		66.20600		324.00000 
 43692.65567		 740.62630			42952.02937		223.75200		875.00000 
 43692.65567		 305.27265			43387.38302		66.20600		324.00000 
 43692.65567		 740.62630			42952.02937		223.75200		875.00000 
 43692.65567		 305.27265			43387.38302		66.20600		324.00000 
 43692.65567		 740.62630			42952.02937		223.75200		875.00000 
 43692.65567		 305.27265			43387.38302		66.20600		324.00000 
 43692.65567		 740.62630			42952.02937		223.75200		875.00000 
 43692.65567		 305.27265			43387.38302		66.20600		324.00000 
 43692.65567		 740.62630			42952.02937		223.75200		875.00000 
 43692.65567		 305.27265			43387.38302		66.20600		324.00000 
 43692.65567		 740.62630			42952.02937		223.75200		875.00000 
 43692.65567		 305.27265			43387.38302		66.20600		324.00000 
 43692.65567		 740.62630			42952.02937		223.75200		875.00000 
 43692.65567		 305.27265			43387.38302		66.20600		324.00000 
 43692.65567		 740.62630			42952.02937		223.75200		875.00000 
 43692.65567		 305.27265			43387.38302		66.20600		324.00000 
 43692.65567		 740.62630			42952.02937		223.75200		875.00000 
 43692.65567		 305.27265			43387.38302		66.20600		324.00000 
 43692.65567		 740.62630			42952.02937		223.75200		875.00000 
 43692.65567		 305.27265			43387.38302		66.20600		324.00000 
 43692.65567		 740.62630			42952.02937		223.75200		875.00000 
 43692.65567		 305.27265			43387.38302		66.20600		324.00000 
 43692.65567		 740.62630			42952.02937		223.75200		875.00000 
 43692.65567		 305.27265			43387.38302		66.20600		324.00000 
 43692.65567		 740.62630			42952.02937		223.75200		875.00000 
 43692.65567		 305.27265			43387.38302		66.20600		324.00000 
 43692.65567		 740.62630			42952.02937		223.75200		875.00000 
 43692.65567		 305.27265			43387.38302		66.20600		324.00000 
 43692.65567		 740.62630			42952.02937		223.75200		875.00000 
 43692.65567		 305.27265			43387.38302		66.20600		324.00000 
 43692.65567		 740.62630			42952.02937		223.75200		875.00000 
 43692.65567		 305.27265			43387.38302		66.20600		324.00000 
 43692.65567		 740.62630			42952.02937		223.75200		875.00000 
 43692.65567		 305.27265			43387.38302		66.20600		324.00000 
 43692.65567		 740.62630			42952.02937		223.75200		875.00000 
 43692.65567		 305.27265			43387.38302		66.20600		324.00000 
 43692.65567		 740.62630			42952.02937		223.75200		875.00000 
 43692.65567		 305.27265			43387.38302		66.20600		324.00000 
 43692.65567		 740.62630			42952.02937		223.75200		875.00000 
 43692.65567		 305.27265			43387.38302		66.20600		324.00000 
 43692.65567		 740.62630			42952.02937		223.75200		875.00000 
 43692.65567		 305.27265			43387.38302		66.20600		324.00000 
 43692.65567		 740.62630			42952.02937		223.75200		875.00000 
 43692.65567		 305.27265			43387.38302		66.20600		324.00000 
 43692.65567		 740.62630			42952.02937		223.75200		875.00000 
 43692.65567		 305.27265			43387.38302		66.20600		324.00000 
 43692.65567		 740.62630			42952.02937		223.75200		875.00000 
 43692.65567		 305.27265			43387.38302		66.20600		324.00000 
 43692.65567		 740.62630			42952.02937		223.75200		875.00000 
 43692.65567		 305.27265			43387.38302		66.20600		324.00000 
 43692.65567		 740.62630			42952.02937		223.75200		875.00000 
 43692.65567		 305.27265			43387.38302		66.20600		324.00000 
 43692.65567		 740.62630			42952.02937		223.75200		875.00000 
 43692.65567		 305.27265			43387.38302		66.20600		324.00000 
 43692.65567		 740.62630			42952.02937		223.75200		875.00000 
 43692.65567		 305.27265			43387.38302		66.20600		324.00000 
 43692.65567		 740.62630			42952.02937		223.75200		875.00000 
 43692.65567		 305.27265			43387.38302		66.20600		324.00000 
 43692.65567		 740.62630			42952.02937		223.75200		875.00000 
 43692.65567		 305.27265			43387.38302		66.20600		324.00000 
 43692.65567		 740.62630			42952.02937		223.75200		875.00000 
 43692.65567		 305.27265			43387.38302		66.20600		324.00000 
 43692.65567		 740.62630			42952.02937		223.75200		875.00000 
 43692.65567		 305.27265			43387.38302		66.20600		324.00000 
 43692.65567		 740.62630			42952.02937		223.75200		875.00000 
 43692.65567		 305.27265			43387.38302		66.20600		324.00000 
 43692.65567		 740.62630			42952.02937		223.75200		875.00000 
 43692.65567		 305.27265			43387.38302		66.20600		324.00000 
 43692.65567		 740.62630			42952.02937		223.75200		875.00000 
 43692.65567		 305.27265			43387.38302		66.20600		324.00000 
 43692.65567		 740.62630			42952.02937		223.75200		875.00000 
 43692.65567		 305.27265			43387.38302		66.20600		324.00000 
 43692.65567		 740.62630			42952.02937		223.75200		875.00000 
 43692.65567		 305.27265			43387.38302		66.20600		324.00000 
 43692.65567		 740.62630			42952.02937		223.75200		875.00000 
 43692.65567		 305.27265			43387.38302		66.20600		324.00000 
 43692.65567		 740.62630			42952.02937		223.75200		875.00000 
 43692.65567		 305.27265			43387.38302		66.20600		324.00000 
 43692.65567		 740.62630			42952.02937		223.75200		875.00000 
 43692.65567		 305.27265			43387.38302		66.20600		324.00000 
 43692.65567		 740.62630			42952.02937		223.75200		875.00000 
 43692.65567		 305.27265			43387.38302		66.20600		324.00000 
 43692.65567		 740.62630			42952.02937		223.75200		875.00000 
 43692.65567		 305.27265			43387.38302		66.20600		324.00000 
 43692.65567		 740.62630			42952.02937		223.75200		875.00000 
 43692.65567		 305.27265			43387.38302		66.20600		324.00000 
 43692.65567		 740.62630			42952.02937		223.75200		875.00000 
 43692.65567		 305.27265			43387.38302		66.20600		324.00000 
 43692.65567		 740.62630			42952.02937		223.75200		875.00000 
 43692.65567		 305.27265			43387.38302		66.20600		324.00000 
 43692.65567		 740.62630			42952.02937		223.75200		875.00000 
 43692.65567		 305.27265			43387.38302		66.20600		324.00000 
 43692.65567		 740.62630			42952.02937		223.75200		875.00000 
 43692.65567		 305.27265			43387.38302		66.20600		324.00000 
 43692.65567		 740.62630			42952.02937		223.75200		875.00000 
 43692.65567		 305.27265			43387.38302		66.20600		324.00000 
 43692.65567		 740.62630			42952.02937		223.75200		875.00000 
 43692.65567		 305.27265			43387.38302		66.20600		324.00000 
 43692.65567		 740.62630			42952.02937		223.75200		875.00000 
 43692.65567		 305.27265			43387.38302		66.20600		324.00000 
 43692.65567		 740.62630			42952.02937		223.75200		875.00000 
 43692.65567		 305.27265			43387.38302		66.20600		324.00000 
 43692.65567		 740.62630			42952.02937		223.75200		875.00000 
 43692.65567		 305.27265			43387.38302		66.20600		324.00000 
 43692.65567		 740.62630			42952.02937		223.75200		875.00000 
 43692.65567		 305.27265			43387.38302		66.20600		324.00000 
 43692.65567		 740.62630			42952.02937		223.75200		875.00000 
 43692.65567		 305.27265			43387.38302		66.20600		324.00000 
 43692.65567		 740.62630			42952.02937		223.75200		875.00000 
 43692.65567		 305.27265			43387.38302		66.20600		324.00000 
 43692.65567		 740.62630			42952.02937		223.75200		875.00000 
 43692.65567		 305.27265			43387.38302		66.20600		324.00000 
 43692.65567		 740.62630			42952.02937		223.75200		875.00000 
 43692.65567		 305.27265			43387.38302		66.20600		324.00000 
 43692.65567		 740.62630			42952.02937		223.75200		875.00000 
 43692.65567		 305.27265			43387.38302		66.20600		324.00000 
 43692.65567		 740.62630			42952.02937		223.75200		875.00000 
 43692.65567		 305.27265			43387.38302		66.20600		324.00000 
 43692.65567		 740.62630			42952.02937		223.75200		875.00000 
 43692.65567		 305.27265			43387.38302		66.20600		324.00000 
 43692.65567		 740.62630			42952.02937		223.75200		875.00000 
 43692.65567		 305.27265			43387.38302		66.20600		324.00000 
 43692.65567		 740.62630			42952.02937		223.75200		875.00000 
 43692.65567		 305.27265			43387.38302		66.20600		324.00000 
 43692.65567		 740.62630			42952.02937		224.54800		875.00000 
 43692.65567		 305.27265			43387.38302		66.20600		324.00000 
 43692.65567		 740.62630			42952.02937		224.54800		875.00000 
 43692.65567		 305.27265			43387.38302		66.20600		324.00000 
 43692.65567		 740.62630			42952.02937		224.54800		875.00000 
 43692.65567		 305.27265			43387.38302		66.20600		324.00000 
 43692.65567		 740.62630			42952.02937		224.54800		875.00000 
 43692.65567		 305.27265			43387.38302		66.20600		324.00000 
 43692.65567		 740.62630			42952.02937		224.54800		875.00000 
 43692.65567		 305.27265			43387.38302		66.20600		324.00000 
 43692.65567		 740.62630			42952.02937		224.54800		875.00000 
 43692.65567		 305.27265			43387.38302		66.20600		324.00000 
 43692.65567		 740.62630			42952.02937		224.54800		875.00000 
 43692.65567		 305.27265			43387.38302		66.20600		324.00000 
 43692.65567		 740.62630			42952.02937		224.54800		875.00000 
 43692.65567		 305.27265			43387.38302		66.20600		324.00000 
 43692.65567		 740.62630			42952.02937		224.54800		875.00000 
 43692.65567		 305.27265			43387.38302		66.20600		324.00000 
 43692.65567		 740.62630			42952.02937		224.54800		875.00000 
 43692.65567		 305.27265			43387.38302		66.20600		324.00000 
 43692.65567		 740.62630			42952.02937		224.54800		875.00000 
 43692.65567		 305.27265			43387.38302		66.20600		324.00000 
 43692.65567		 740.62630			42952.02937		224.54800		875.00000 
 43692.65567		 305.27265			43387.38302		66.20600		324.00000 
 43692.65567		 740.62630			42952.02937		224.54800		875.00000 
 43692.65567		 305.27265			43387.38302		66.20600		324.00000 
 43692.65567		 740.62630			42952.02937		224.54800		875.00000 
 43692.65567		 305.27265			43387.38302		66.20600		324.00000 
 43692.65567		 740.62630			42952.02937		224.54800		875.00000 
 43692.65567		 305.27265			43387.38302		66.20600		324.00000 
 43692.65567		 740.62630			42952.02937		224.54800		875.00000 
 43692.65567		 305.27265			43387.38302		66.20600		324.00000 
 43692.65567		 740.62630			42952.02937		224.54800		875.00000 
 43692.65567		 305.27265			43387.38302		66.20600		324.00000 
 43692.65567		 740.62630			42952.02937		224.54800		875.00000 
 43692.65567		 305.27265			43387.38302		66.20600		324.00000 
 43692.65567		 740.62630			42952.02937		224.54800		875.00000 
 43692.65567		 305.27265			43387.38302		66.20600		324.00000 
 43692.65567		 740.62630			42952.02937		224.54800		875.00000 
 43692.65567		 305.27265			43387.38302		66.20600		324.00000 
 43692.65567		 740.62630			42952.02937		224.54800		875.00000 
 43692.65567		 305.27265			43387.38302		66.20600		324.00000 
 43692.65567		 740.62630			42952.02937		224.54800		875.00000 
 43692.65567		 305.27265			43387.38302		66.20600		324.00000 
 43692.65567		 740.62630			42952.02937		224.54800		875.00000 
 43692.65567		 305.27265			43387.38302		66.20600		324.00000 
 43692.65567		 740.62630			42952.02937		224.54800		875.00000 
 43692.65567		 305.27265			43387.38302		66.20600		324.00000 
 43692.65567		 740.62630			42952.02937		224.54800		875.00000 
 43692.65567		 305.27265			43387.38302		66.20600		324.00000 
 43692.65567		 740.62630			42952.02937		224.54800		875.00000 
 43692.65567		 305.27265			43387.38302		66.20600		324.00000 
 43692.65567		 740.62630			42952.02937		224.54800		875.00000 
 43692.65567		 305.27265			43387.38302		66.20600		324.00000 
 43692.65567		 740.62630			42952.02937		224.54800		875.00000 
 43692.65567		 305.27265			43387.38302		66.20600		324.00000 
 43692.65567		 740.62630			42952.02937		224.54800		875.00000 
 43692.65567		 305.27265			43387.38302		66.20600		324.00000 
 43692.65567		 740.62630			42952.02937		224.54800		875.00000 
 43692.65567		 305.27265			43387.38302		66.20600		324.00000 
 43692.65567		 740.62630			42952.02937		224.54800		875.00000 
 43692.65567		 305.27265			43387.38302		66.20600		324.00000 
 43692.65567		 740.62630			42952.02937		224.54800		875.00000 
 43692.65567		 305.27265			43387.38302		66.20600		324.00000 
 43692.65567		 740.62630			42952.02937		224.54800		875.00000 
 43692.65567		 305.27265			43387.38302		66.20600		324.00000 
 43692.65567		 740.62630			42952.02937		224.54800		875.00000 
 43692.65567		 305.27265			43387.38302		66.20600		324.00000 
 43692.65567		 740.62630			42952.02937		224.54800		875.00000 
 43692.65567		 305.27265			43387.38302		66.20600		324.00000 
 43692.65567		 740.62630			42952.02937		224.54800		875.00000 
 43692.65567		 305.27265			43387.38302		66.20600		324.00000 
 43692.65567		 740.62630			42952.02937		224.54800		875.00000 
 43692.65567		 305.27265			43387.38302		66.20600		324.00000 
 43692.65567		 740.62630			42952.02937		224.54800		875.00000 
 43692.65567		 305.27265			43387.38302		66.20600		324.00000 
 43692.65567		 740.62630			42952.02937		224.54800		875.00000 
 43692.65567		 305.27265			43387.38302		66.20600		324.00000 
 43692.65567		 740.62630			42952.02937		224.54800		875.00000 
 43692.65567		 305.27265			43387.38302		66.20600		324.00000 
 43692.65567		 740.62630			42952.02937		224.54800		875.00000 
 43692.65567		 305.27265			43387.38302		66.20600		324.00000 
 43692.65567		 740.62630			42952.02937		224.54800		875.00000 
 43692.65567		 305.27265			43387.38302		66.20600		324.00000 
 43692.65567		 740.62630			42952.02937		224.54800		875.00000 
 43692.65567		 305.27265			43387.38302		66.20600		324.00000 
 43692.65567		 740.62630			42952.02937		224.54800		875.00000 
 43692.65567		 305.27265			43387.38302		66.20600		324.00000 
 43692.65567		 740.62630			42952.02937		224.54800		875.00000 
 43692.65567		 305.27265			43387.38302		66.20600		324.00000 
 43692.65567		 740.62630			42952.02937		224.54800		875.00000 
 43692.65567		 305.27265			43387.38302		66.20600		324.00000 
 43692.65567		 740.62630			42952.02937		224.54800		875.00000 
 43692.65567		 305.27265			43387.38302		66.20600		324.00000 
 43692.65567		 740.62630			42952.02937		224.54800		875.00000 
 43692.65567		 305.27265			43387.38302		66.20600		324.00000 
 43692.65567		 740.62630			42952.02937		224.54800		875.00000 
 43692.65567		 305.27265			43387.38302		66.20600		324.00000 
 43692.65567		 740.62630			42952.02937		224.54800		875.00000 
 43692.65567		 305.27265			43387.38302		66.20600		324.00000 
 43692.65567		 740.62630			42952.02937		224.54800		875.00000 
 43692.65567		 305.27265			43387.38302		66.20600		324.00000 
 43692.65567		 740.62630			42952.02937		224.54800		875.00000 
 43692.65567		 305.27265			43387.38302		66.20600		324.00000 
 43692.65567		 740.62630			42952.02937		224.54800		875.00000 
 43692.65567		 305.27265			43387.38302		66.20600		324.00000 
 43692.65567		 740.62630			42952.02937		224.54800		875.00000 
 43692.65567		 305.27265			43387.38302		66.20600		324.00000 
 43692.65567		 740.62630			42952.02937		224.54800		875.00000 
 43692.65567		 305.27265			43387.38302		66.20600		324.00000 
 43692.65567		 740.62630			42952.02937		224.54800		875.00000 
 43692.65567		 305.27265			43387.38302		66.20600		324.00000 
 43692.65567		 740.62630			42952.02937		224.54800		875.00000 
 43692.65567		 305.27265			43387.38302		66.20600		324.00000 
 43692.65567		 740.62630			42952.02937		224.54800		875.00000 
 43692.65567		 305.27265			43387.38302		66.20600		324.00000 
 43692.65567		 740.62630			42952.02937		224.54800		875.00000 
 43692.65567		 305.27265			43387.38302		66.20600		324.00000 
 43692.65567		 740.62630			42952.02937		224.54800		875.00000 
 43692.65567		 305.27265			43387.38302		66.20600		324.00000 
 43692.65567		 740.62630			42952.02937		224.54800		875.00000 
 43692.65567		 305.27265			43387.38302		66.20600		324.00000 
 43692.65567		 740.62630			42952.02937		224.54800		875.00000 
 43692.65567		 305.27265			43387.38302		66.20600		324.00000 
 43692.65567		 740.62630			42952.02937		224.54800		875.00000 
 43692.65567		 305.27265			43387.38302		66.20600		324.00000 
 43692.65567		 740.62630			42952.02937		224.54800		875.00000 
 43692.65567		 305.27265			43387.38302		66.20600		324.00000 
 43692.65567		 740.62630			42952.02937		224.77000		875.00000 
 43692.65567		 305.27265			43387.38302		66.20600		324.00000 
 43692.65567		 740.62630			42952.02937		224.77000		875.00000 
 43692.65567		 305.27265			43387.38302		66.20600		324.00000 
 43692.65567		 740.62630			42952.02937		224.77000		875.00000 
 43692.65567		 305.27265			43387.38302		66.20600		324.00000 
 43692.65567		 740.62630			42952.02937		224.77000		875.00000 
 43692.65567		 305.27265			43387.38302		66.20600		324.00000 
 43692.65567		 740.62630			42952.02937		224.77000		875.00000 
 43692.65567		 305.27265			43387.38302		66.20600		324.00000 
 43692.65567		 740.62630			42952.02937		224.77000		875.00000 
 43692.65567		 305.27265			43387.38302		66.20600		324.00000 
 43692.65567		 740.62630			42952.02937		224.77000		875.00000 
 43692.65567		 305.27265			43387.38302		66.20600		324.00000 
 43692.65567		 740.62630			42952.02937		224.77000		875.00000 
 43692.65567		 305.27265			43387.38302		66.20600		324.00000 
 43692.65567		 740.62630			42952.02937		224.77000		875.00000 
 43692.65567		 305.27265			43387.38302		66.20600		324.00000 
 43692.65567		 740.62630			42952.02937		224.77000		875.00000 
 43692.65567		 305.27265			43387.38302		66.20600		324.00000 
 43692.65567		 740.62630			42952.02937		224.77000		875.00000 
 43692.65567		 305.27265			43387.38302		66.20600		324.00000 
 43692.65567		 740.62630			42952.02937		224.77000		875.00000 
 43692.65567		 305.27265			43387.38302		66.20600		324.00000 
 43692.65567		 740.62630			42952.02937		224.77000		875.00000 
 43692.65567		 305.27265			43387.38302		66.20600		324.00000 
 43692.65567		 740.62630			42952.02937		224.77000		875.00000 
 43692.65567		 305.27265			43387.38302		66.20600		324.00000 
 43692.65567		 740.62630			42952.02937		224.77000		875.00000 
 43692.65567		 305.27265			43387.38302		66.20600		324.00000 
 43692.65567		 740.62630			42952.02937		224.77000		875.00000 
 43692.65567		 305.27265			43387.38302		66.20600		324.00000 
 43692.65567		 740.62630			42952.02937		224.77000		875.00000 
 43692.65567		 305.27265			43387.38302		66.20600		324.00000 
 43692.65567		 740.62630			42952.02937		224.77000		875.00000 
 43692.65567		 305.27265			43387.38302		66.20600		324.00000 
 43692.65567		 740.62630			42952.02937		224.77000		875.00000 
 43692.65567		 305.27265			43387.38302		66.20600		324.00000 
 43692.65567		 740.62630			42952.02937		224.77000		875.00000 
 43692.65567		 305.27265			43387.38302		66.20600		324.00000 
 43692.65567		 740.62630			42952.02937		224.77000		875.00000 
 43692.65567		 305.27265			43387.38302		66.20600		324.00000 
 43692.65567		 740.62630			42952.02937		224.77000		875.00000 
 43692.65567		 305.27265			43387.38302		66.20600		324.00000 
 43692.65567		 740.62630			42952.02937		224.77000		875.00000 
 43692.65567		 305.27265			43387.38302		66.20600		324.00000 
 43692.65567		 740.62630			42952.02937		224.77000		875.00000 
 43692.65567		 305.27265			43387.38302		66.20600		324.00000 
 43692.65567		 740.62630			42952.02937		224.77000		875.00000 
 43692.65567		 305.27265			43387.38302		66.20600		324.00000 
 43692.65567		 740.62630			42952.02937		224.77000		875.00000 
 43692.65567		 305.27265			43387.38302		66.20600		324.00000 
 43692.65567		 740.62630			42952.02937		224.77000		875.00000 
 43692.65567		 305.27265			43387.38302		66.20600		324.00000 
 43692.65567		 740.62630			42952.02937		224.77000		875.00000 
 43692.65567		 305.27265			43387.38302		66.20600		324.00000 
 43692.65567		 740.62630			42952.02937		224.77000		875.00000 
 43692.65567		 305.27265			43387.38302		66.20600		324.00000 
 43692.65567		 740.62630			42952.02937		224.77000		875.00000 
 43692.65567		 305.27265			43387.38302		66.20600		324.00000 
 43692.65567		 740.62630			42952.02937		224.77000		875.00000 
 43692.65567		 305.27265			43387.38302		66.20600		324.00000 
 43692.65567		 740.62630			42952.02937		224.77000		875.00000 
 43692.65567		 305.27265			43387.38302		66.20600		324.00000 
 43692.65567		 740.62630			42952.02937		224.77000		875.00000 
 43692.65567		 305.27265			43387.38302		66.20600		324.00000 
 43692.65567		 740.62630			42952.02937		224.77000		875.00000 
 43692.65567		 305.27265			43387.38302		66.20600		324.00000 
 43692.65567		 740.62630			42952.02937		224.77000		875.00000 
 43692.65567		 305.27265			43387.38302		66.20600		324.00000 
 43692.65567		 740.62630			42952.02937		224.77000		875.00000 
 43692.65567		 305.27265			43387.38302		66.20600		324.00000 
 43692.65567		 740.62630			42952.02937		224.77000		875.00000 
 43692.65567		 305.27265			43387.38302		66.20600		324.00000 
 43692.65567		 740.62630			42952.02937		224.77000		875.00000 
 43692.65567		 305.27265			43387.38302		66.20600		324.00000 
 43692.65567		 740.62630			42952.02937		224.77000		875.00000 
 43692.65567		 305.27265			43387.38302		66.20600		324.00000 
 43692.65567		 740.62630			42952.02937		224.77000		875.00000 
 43692.65567		 305.27265			43387.38302		66.20600		324.00000 
 43692.65567		 740.62630			42952.02937		224.77000		875.00000 
 43692.65567		 305.27265			43387.38302		66.20600		324.00000 
 43692.65567		 740.62630			42952.02937		224.77000		875.00000 
 43692.65567		 305.27265			43387.38302		66.20600		324.00000 
 43692.65567		 740.62630			42952.02937		224.77000		875.00000 
 43692.65567		 305.27265			43387.38302		66.20600		324.00000 
 43692.65567		 740.62630			42952.02937		224.77000		875.00000 
 43692.65567		 305.27265			43387.38302		66.20600		324.00000 
 43692.65567		 740.62630			42952.02937		224.77000		875.00000 
 43692.65567		 305.27265			43387.38302		66.20600		324.00000 
 43692.65567		 740.62630			42952.02937		224.77000		875.00000 
 43692.65567		 305.27265			43387.38302		66.20600		324.00000 
 43692.65567		 740.62630			42952.02937		224.77000		875.00000 
 43692.65567		 305.27265			43387.38302		66.20600		324.00000 
 43692.65567		 740.62630			42952.02937		224.77000		875.00000 
 43692.65567		 305.27265			43387.38302		66.20600		324.00000 
 43692.65567		 740.62630			42952.02937		224.77000		875.00000 
 43692.65567		 305.27265			43387.38302		66.20600		324.00000 
 43692.65567		 740.62630			42952.02937		224.77000		875.00000 
 43692.65567		 305.27265			43387.38302		66.20600		324.00000 
 43692.65567		 740.62630			42952.02937		224.77000		875.00000 
 43692.65567		 305.27265			43387.38302		66.20600		324.00000 
 43692.65567		 740.62630			42952.02937		224.77000		875.00000 
 43692.65567		 305.27265			43387.38302		66.20600		324.00000 
 43692.65567		 740.62630			42952.02937		224.77000		875.00000 
 43692.65567		 305.27265			43387.38302		66.20600		324.00000 
 43692.65567		 740.62630			42952.02937		224.77000		875.00000 
 43692.65567		 305.27265			43387.38302		66.20600		324.00000 
 43692.65567		 740.62630			42952.02937		224.77000		875.00000 
 43692.65567		 305.27265			43387.38302		66.20600		324.00000 
 43692.65567		 740.62630			42952.02937		224.77000		875.00000 
 43692.65567		 305.27265			43387.38302		66.20600		324.00000 
 43692.65567		 740.62630			42952.02937		224.77000		875.00000 
 43692.65567		 305.27265			43387.38302		66.20600		324.00000 
 43692.65567		 740.62630			42952.02937		224.77000		875.00000 
 43692.65567		 305.27265			43387.38302		66.20600		324.00000 
 43692.65567		 740.62630			42952.02937		224.77000		875.00000 
 43692.65567		 305.27265			43387.38302		66.20600		324.00000 
 43692.65567		 740.62630			42952.02937		224.77000		875.00000 
 43692.65567		 305.27265			43387.38302		66.20600		324.00000 
 43692.65567		 740.62630			42952.02937		224.77000		875.00000 
 43692.65567		 305.27265			43387.38302		66.20600		324.00000 
 43692.65567		 740.62630			42952.02937		224.77000		875.00000 
 43692.65567		 305.27265			43387.38302		66.20600		324.00000 
 43692.65567		 740.62630			42952.02937		224.77000		875.00000 
 43692.65567		 305.27265			43387.38302		66.20600		324.00000 
 43692.65567		 740.62630			42952.02937		224.77000		875.00000 
 43692.65567		 305.27265			43387.38302		66.20600		324.00000 
 43692.65567		 740.62630			42952.02937		224.77000		875.00000 
 43692.65567		 305.27265			43387.38302		66.20600		324.00000 
 43692.65567		 740.62630			42952.02937		224.38800		875.00000 
 43692.65567		 305.27265			43387.38302		66.20600		324.00000 
 43692.65567		 740.62630			42952.02937		224.38800		875.00000 
 43692.65567		 305.27265			43387.38302		66.20600		324.00000 
 43692.65567		 740.62630			42952.02937		224.38800		875.00000 
 43692.65567		 305.27265			43387.38302		66.20600		324.00000 
 43692.65567		 740.62630			42952.02937		224.38800		875.00000 
 43692.65567		 305.27265			43387.38302		66.20600		324.00000 
 43692.65567		 740.62630			42952.02937		224.38800		875.00000 
 43692.65567		 305.27265			43387.38302		66.20600		324.00000 
 43692.65567		 740.62630			42952.02937		224.38800		875.00000 
 43692.65567		 305.27265			43387.38302		66.20600		324.00000 
 43692.65567		 740.62630			42952.02937		224.38800		875.00000 
 43692.65567		 305.27265			43387.38302		66.20600		324.00000 
 43692.65567		 740.62630			42952.02937		224.38800		875.00000 
 43692.65567		 305.27265			43387.38302		66.20600		324.00000 
 43692.65567		 740.62630			42952.02937		224.38800		875.00000 
 43692.65567		 305.27265			43387.38302		66.20600		324.00000 
 43692.65567		 740.62630			42952.02937		224.38800		875.00000 
 43692.65567		 305.27265			43387.38302		66.20600		324.00000 
 43692.65567		 740.62630			42952.02937		224.38800		875.00000 
 43692.65567		 305.27265			43387.38302		66.20600		324.00000 
 43692.65567		 740.62630			42952.02937		224.38800		875.00000 
 43692.65567		 305.27265			43387.38302		66.20600		324.00000 
 43692.65567		 740.62630			42952.02937		224.38800		875.00000 
 43692.65567		 305.27265			43387.38302		66.20600		324.00000 
 43692.65567		 740.62630			42952.02937		224.38800		875.00000 
 43692.65567		 305.27265			43387.38302		66.20600		324.00000 
 43692.65567		 740.62630			42952.02937		224.38800		875.00000 
 43692.65567		 305.27265			43387.38302		66.20600		324.00000 
 43692.65567		 740.62630			42952.02937		224.38800		875.00000 
 43692.65567		 305.27265			43387.38302		66.20600		324.00000 
 43692.65567		 740.62630			42952.02937		224.38800		875.00000 
 43692.65567		 305.27265			43387.38302		66.20600		324.00000 
 43692.65567		 740.62630			42952.02937		224.38800		875.00000 
 43692.65567		 305.27265			43387.38302		66.20600		324.00000 
 43692.65567		 740.62630			42952.02937		224.38800		875.00000 
 43692.65567		 305.27265			43387.38302		66.20600		324.00000 
 43692.65567		 740.62630			42952.02937		224.38800		875.00000 
 43692.65567		 305.27265			43387.38302		66.20600		324.00000 
 43692.65567		 740.62630			42952.02937		224.38800		875.00000 
 43692.65567		 305.27265			43387.38302		66.20600		324.00000 
 43692.65567		 740.62630			42952.02937		224.38800		875.00000 
 43692.65567		 305.27265			43387.38302		66.20600		324.00000 
 43692.65567		 740.62630			42952.02937		224.38800		875.00000 
 43692.65567		 305.27265			43387.38302		66.20600		324.00000 
 43692.65567		 740.62630			42952.02937		224.38800		875.00000 
 43692.65567		 305.27265			43387.38302		66.20600		324.00000 
 43692.65567		 740.62630			42952.02937		224.38800		875.00000 
 43692.65567		 305.27265			43387.38302		66.20600		324.00000 
 43692.65567		 740.62630			42952.02937		224.38800		875.00000 
 43692.65567		 305.27265			43387.38302		66.20600		324.00000 
 43692.65567		 740.62630			42952.02937		224.38800		875.00000 
 43692.65567		 305.27265			43387.38302		66.20600		324.00000 
 43692.65567		 740.62630			42952.02937		224.38800		875.00000 
 43692.65567		 305.27265			43387.38302		66.20600		324.00000 
 43692.65567		 740.62630			42952.02937		224.38800		875.00000 
 43692.65567		 305.27265			43387.38302		66.20600		324.00000 
 43692.65567		 740.62630			42952.02937		224.38800		875.00000 
 43692.65567		 305.27265			43387.38302		66.20600		324.00000 
 43692.65567		 740.62630			42952.02937		224.38800		875.00000 
 43692.65567		 305.27265			43387.38302		66.20600		324.00000 
 43692.65567		 740.62630			42952.02937		224.38800		875.00000 
 43692.65567		 305.27265			43387.38302		66.20600		324.00000 
 43692.65567		 740.62630			42952.02937		224.38800		875.00000 
 43692.65567		 305.27265			43387.38302		66.20600		324.00000 
 43692.65567		 740.62630			42952.02937		224.38800		875.00000 
 43692.65567		 305.27265			43387.38302		66.20600		324.00000 
 43692.65567		 740.62630			42952.02937		224.38800		875.00000 
 43692.65567		 305.27265			43387.38302		66.20600		324.00000 
 43692.65567		 740.62630			42952.02937		224.38800		875.00000 
 43692.65567		 305.27265			43387.38302		66.20600		324.00000 
 43692.65567		 740.62630			42952.02937		224.38800		875.00000 
 43692.65567		 305.27265			43387.38302		66.20600		324.00000 
 43692.65567		 740.62630			42952.02937		224.38800		875.00000 
 43692.65567		 305.27265			43387.38302		66.20600		324.00000 
 43692.65567		 740.62630			42952.02937		224.38800		875.00000 
 43692.65567		 305.27265			43387.38302		66.20600		324.00000 
 43692.65567		 740.62630			42952.02937		224.38800		875.00000 
 43692.65567		 305.27265			43387.38302		66.20600		324.00000 
 43692.65567		 740.62630			42952.02937		224.38800		875.00000 
 43692.65567		 305.27265			43387.38302		66.20600		324.00000 
 43692.65567		 740.62630			42952.02937		224.38800		875.00000 
 43692.65567		 305.27265			43387.38302		66.20600		324.00000 
 43692.65567		 740.62630			42952.02937		224.38800		875.00000 
 43692.65567		 305.27265			43387.38302		66.20600		324.00000 
 43692.65567		 740.62630			42952.02937		224.38800		875.00000 
 43692.65567		 305.27265			43387.38302		66.20600		324.00000 
 43692.65567		 740.62630			42952.02937		224.38800		875.00000 
 43692.65567		 305.27265			43387.38302		66.20600		324.00000 
 43692.65567		 740.62630			42952.02937		224.38800		875.00000 
 43692.65567		 305.27265			43387.38302		66.20600		324.00000 
 43692.65567		 740.62630			42952.02937		224.38800		875.00000 
 43692.65567		 305.27265			43387.38302		66.20600		324.00000 
 43692.65567		 740.62630			42952.02937		224.38800		875.00000 
 43692.65567		 305.27265			43387.38302		66.20600		324.00000 
 43692.65567		 740.62630			42952.02937		224.38800		875.00000 
 43692.65567		 305.27265			43387.38302		66.20600		324.00000 
 43692.65567		 740.62630			42952.02937		224.38800		875.00000 
 43692.65567		 305.27265			43387.38302		66.20600		324.00000 
 43692.65567		 740.62630			42952.02937		224.38800		875.00000 
 43692.65567		 305.27265			43387.38302		66.20600		324.00000 
 43692.65567		 740.62630			42952.02937		224.38800		875.00000 
 43692.65567		 305.27265			43387.38302		66.20600		324.00000 
 43692.65567		 740.62630			42952.02937		224.38800		875.00000 
 43692.65567		 305.27265			43387.38302		66.20600		324.00000 
 43692.65567		 740.62630			42952.02937		224.38800		875.00000 
 43692.65567		 305.27265			43387.38302		66.20600		324.00000 
 43692.65567		 740.62630			42952.02937		224.38800		875.00000 
 43692.65567		 305.27265			43387.38302		66.20600		324.00000 
 43692.65567		 740.62630			42952.02937		224.38800		875.00000 
 43692.65567		 305.27265			43387.38302		66.20600		324.00000 
 43692.65567		 740.62630			42952.02937		224.38800		875.00000 
 43692.65567		 305.27265			43387.38302		66.20600		324.00000 
 43692.65567		 740.62630			42952.02937		224.38800		875.00000 
 43692.65567		 305.27265			43387.38302		66.20600		324.00000 
 43692.65567		 740.62630			42952.02937		224.38800		875.00000 
 43692.65567		 305.27265			43387.38302		66.20600		324.00000 
 43692.65567		 740.62630			42952.02937		224.38800		875.00000 
 43692.65567		 305.27265			43387.38302		66.20600		324.00000 
 43692.65567		 740.62630			42952.02937		224.38800		875.00000 
 43692.65567		 305.27265			43387.38302		66.20600		324.00000 
 43692.65567		 740.62630			42952.02937		224.38800		875.00000 
 43692.65567		 305.27265			43387.38302		66.20600		324.00000 
 43692.65567		 740.62630			42952.02937		224.38800		875.00000 
 43692.65567		 305.27265			43387.38302		66.20600		324.00000 
 43692.65567		 740.62630			42952.02937		224.38800		875.00000 
 43692.65567		 305.27265			43387.38302		66.20600		324.00000 
 43692.65567		 740.62630			42952.02937		223.78800		875.00000 
 43692.65567		 305.27265			43387.38302		66.20600		324.00000 
 43692.65567		 740.62630			42952.02937		223.78800		875.00000 
 43692.65567		 305.27265			43387.38302		66.20600		324.00000 
 43692.65567		 740.62630			42952.02937		223.78800		875.00000 
 43692.65567		 305.27265			43387.38302		66.20600		324.00000 
 43692.65567		 740.62630			42952.02937		223.78800		875.00000 
 43692.65567		 305.27265			43387.38302		66.20600		324.00000 
 43692.65567		 740.62630			42952.02937		223.78800		875.00000 
 43692.65567		 305.27265			43387.38302		66.20600		324.00000 
 43692.65567		 740.62630			42952.02937		223.78800		875.00000 
 43692.65567		 305.27265			43387.38302		66.20600		324.00000 
 43692.65567		 740.62630			42952.02937		223.78800		875.00000 
 43692.65567		 305.27265			43387.38302		66.20600		324.00000 
 43692.65567		 740.62630			42952.02937		223.78800		875.00000 
 43692.65567		 305.27265			43387.38302		66.20600		324.00000 
 43692.65567		 740.62630			42952.02937		223.78800		875.00000 
 43692.65567		 305.27265			43387.38302		66.20600		324.00000 
 43692.65567		 740.62630			42952.02937		223.78800		875.00000 
 43692.65567		 305.27265			43387.38302		66.20600		324.00000 
 43692.65567		 740.62630			42952.02937		223.78800		875.00000 
 43692.65567		 305.27265			43387.38302		66.20600		324.00000 
 43692.65567		 740.62630			42952.02937		223.78800		875.00000 
 43692.65567		 305.27265			43387.38302		66.20600		324.00000 
 43692.65567		 740.62630			42952.02937		223.78800		875.00000 
 43692.65567		 305.27265			43387.38302		66.20600		324.00000 
 43692.65567		 740.62630			42952.02937		223.78800		875.00000 
 43692.65567		 305.27265			43387.38302		66.20600		324.00000 
 43692.65567		 740.62630			42952.02937		223.78800		875.00000 
 43692.65567		 305.27265			43387.38302		66.20600		324.00000 
 43692.65567		 740.62630			42952.02937		223.78800		875.00000 
 43692.65567		 305.27265			43387.38302		66.20600		324.00000 
 43692.65567		 740.62630			42952.02937		223.78800		875.00000 
 43692.65567		 305.27265			43387.38302		66.20600		324.00000 
 43692.65567		 740.62630			42952.02937		223.78800		875.00000 
 43692.65567		 305.27265			43387.38302		66.20600		324.00000 
 43692.65567		 740.62630			42952.02937		223.78800		875.00000 
 43692.65567		 305.27265			43387.38302		66.20600		324.00000 
 43692.65567		 740.62630			42952.02937		223.78800		875.00000 
 43692.65567		 305.27265			43387.38302		66.20600		324.00000 
 43692.65567		 740.62630			42952.02937		223.78800		875.00000 
 43692.65567		 305.27265			43387.38302		66.20600		324.00000 
 43692.65567		 740.62630			42952.02937		223.78800		875.00000 
 43692.65567		 305.27265			43387.38302		66.20600		324.00000 
 43692.65567		 740.62630			42952.02937		223.78800		875.00000 
 43692.65567		 305.27265			43387.38302		66.20600		324.00000 
 43692.65567		 740.62630			42952.02937		223.78800		875.00000 
 43692.65567		 305.27265			43387.38302		66.20600		324.00000 
 43692.65567		 740.62630			42952.02937		223.78800		875.00000 
 43692.65567		 305.27265			43387.38302		66.20600		324.00000 
 43692.65567		 740.62630			42952.02937		223.78800		875.00000 
 43692.65567		 305.27265			43387.38302		66.20600		324.00000 
 43692.65567		 740.62630			42952.02937		223.78800		875.00000 
 43692.65567		 305.27265			43387.38302		66.20600		324.00000 
 43692.65567		 740.62630			42952.02937		223.78800		875.00000 
 43692.65567		 305.27265			43387.38302		66.20600		324.00000 
 43692.65567		 740.62630			42952.02937		223.78800		875.00000 
 43692.65567		 305.27265			43387.38302		66.20600		324.00000 
 43692.65567		 740.62630			42952.02937		223.78800		875.00000 
 43692.65567		 305.27265			43387.38302		66.20600		324.00000 
 43692.65567		 740.62630			42952.02937		223.78800		875.00000 
 43692.65567		 305.27265			43387.38302		66.20600		324.00000 
 43692.65567		 740.62630			42952.02937		223.78800		875.00000 
 43692.65567		 305.27265			43387.38302		66.20600		324.00000 
 43692.65567		 740.62630			42952.02937		223.78800		875.00000 
 43692.65567		 305.27265			43387.38302		66.20600		324.00000 
 43692.65567		 740.62630			42952.02937		223.78800		875.00000 
 43692.65567		 305.27265			43387.38302		66.20600		324.00000 
 43692.65567		 740.62630			42952.02937		223.78800		875.00000 
 43692.65567		 305.27265			43387.38302		66.20600		324.00000 
 43692.65567		 740.62630			42952.02937		223.78800		875.00000 
 43692.65567		 305.27265			43387.38302		66.20600		324.00000 
 43692.65567		 740.62630			42952.02937		223.78800		875.00000 
 43692.65567		 305.27265			43387.38302		66.20600		324.00000 
 43692.65567		 740.62630			42952.02937		223.78800		875.00000 
 43692.65567		 305.27265			43387.38302		66.20600		324.00000 
 43692.65567		 740.62630			42952.02937		223.78800		875.00000 
 43692.65567		 305.27265			43387.38302		66.20600		324.00000 
 43692.65567		 740.62630			42952.02937		223.78800		875.00000 
 43692.65567		 305.27265			43387.38302		66.20600		324.00000 
 43692.65567		 740.62630			42952.02937		223.78800		875.00000 
 43692.65567		 305.27265			43387.38302		66.20600		324.00000 
 43692.65567		 740.62630			42952.02937		223.78800		875.00000 
 43692.65567		 305.27265			43387.38302		66.20600		324.00000 
 43692.65567		 740.62630			42952.02937		223.78800		875.00000 
 43692.65567		 305.27265			43387.38302		66.20600		324.00000 
 43692.65567		 740.62630			42952.02937		223.78800		875.00000 
 43692.65567		 305.27265			43387.38302		66.20600		324.00000 
 43692.65567		 740.62630			42952.02937		223.78800		875.00000 
 43692.65567		 305.27265			43387.38302		66.20600		324.00000 
 43692.65567		 740.62630			42952.02937		223.78800		875.00000 
 43692.65567		 305.27265			43387.38302		66.20600		324.00000 
 43692.65567		 740.62630			42952.02937		223.78800		875.00000 
 43692.65567		 305.27265			43387.38302		66.20600		324.00000 
 43692.65567		 740.62630			42952.02937		223.78800		875.00000 
 43692.65567		 305.27265			43387.38302		66.20600		324.00000 
 43692.65567		 740.62630			42952.02937		223.78800		875.00000 
 43692.65567		 305.27265			43387.38302		66.20600		324.00000 
 43692.65567		 740.62630			42952.02937		223.78800		875.00000 
 43692.65567		 305.27265			43387.38302		66.20600		324.00000 
 43692.65567		 740.62630			42952.02937		223.78800		875.00000 
 43692.65567		 305.27265			43387.38302		66.20600		324.00000 
 43692.65567		 740.62630			42952.02937		223.78800		875.00000 
 43692.65567		 305.27265			43387.38302		66.20600		324.00000 
 43692.65567		 740.62630			42952.02937		223.78800		875.00000 
 43692.65567		 305.27265			43387.38302		66.20600		324.00000 
 43692.65567		 740.62630			42952.02937		223.78800		875.00000 
 43692.65567		 305.27265			43387.38302		66.20600		324.00000 
 43692.65567		 740.62630			42952.02937		223.78800		875.00000 
 43692.65567		 305.27265			43387.38302		66.20600		324.00000 
 43692.65567		 740.62630			42952.02937		223.78800		875.00000 
 43692.65567		 305.27265			43387.38302		66.20600		324.00000 
 43692.65567		 740.62630			42952.02937		223.78800		875.00000 
 43692.65567		 305.27265			43387.38302		66.20600		324.00000 
 43692.65567		 740.62630			42952.02937		223.78800		875.00000 
 43692.65567		 305.27265			43387.38302		66.20600		324.00000 
 43692.65567		 740.62630			42952.02937		223.78800		875.00000 
 43692.65567		 305.27265			43387.38302		66.20600		324.00000 
 43692.65567		 740.62630			42952.02937		223.78800		875.00000 
 43692.65567		 305.27265			43387.38302		66.20600		324.00000 
 43692.65567		 740.62630			42952.02937		223.78800		875.00000 
 43692.65567		 305.27265			43387.38302		66.20600		324.00000 
 43692.65567		 740.62630			42952.02937		223.78800		875.00000 
 43692.65567		 305.27265			43387.38302		66.20600		324.00000 
 43692.65567		 740.62630			42952.02937		223.78800		875.00000 
 43692.65567		 305.27265			43387.38302		66.20600		324.00000 
 43692.65567		 740.62630			42952.02937		223.78800		875.00000 
 43692.65567		 305.27265			43387.38302		66.20600		324.00000 
 43692.65567		 740.62630			42952.02937		223.78800		875.00000 
 43692.65567		 305.27265			43387.38302		66.20600		324.00000 
 43692.65567		 740.62630			42952.02937		223.78800		875.00000 
 43692.65567		 305.27265			43387.38302		66.20600		324.00000 
 43692.65567		 740.62630			42952.02937		223.78800		875.00000 
 43692.65567		 305.27265			43387.38302		66.20600		324.00000 
 43692.65567		 740.62630			42952.02937		223.78800		875.00000 
 43692.65567		 305.27265			43387.38302		66.20600		324.00000 
 43692.65567		 740.62630			42952.02937		223.78800		875.00000 
 43692.65567		 305.27265			43387.38302		66.20600		324.00000 
 43692.65567		 740.62630			42952.02937		223.78800		875.00000 
 43692.65567		 305.27265			43387.38302		66.20600		324.00000 
 43692.65567		 740.62630			42952.02937		223.78800		875.00000 
 43692.65567		 305.27265			43387.38302		66.20600		324.00000 
 43692.65567		 740.62630			42952.02937		223.78800		875.00000 
 43692.65567		 305.27265			43387.38302		66.20600		324.00000 
 43692.65567		 740.62630			42952.02937		223.78800		875.00000 
 43692.65567		 305.27265			43387.38302		66.20600		324.00000 
 43692.65567		 740.62630			42952.02937		223.78800		875.00000 
 43692.65567		 305.27265			43387.38302		66.20600		324.00000 
 43692.65567		 740.62630			42952.02937		223.78800		875.00000 
 43692.65567		 305.27265			43387.38302		66.20600		324.00000 
 43692.65567		 740.62630			42952.02937		223.78800		875.00000 
 43692.65567		 305.27265			43387.38302		66.20600		324.00000 
 43692.65567		 740.62630			42952.02937		223.78800		875.00000 
 43692.65567		 305.27265			43387.38302		66.20600		324.00000 
 43692.65567		 740.62630			42952.02937		223.78800		875.00000 
 43692.65567		 305.27265			43387.38302		66.20600		324.00000 
 43692.65567		 740.62630			42952.02937		223.78800		875.00000 
 43692.65567		 305.27265			43387.38302		66.20600		324.00000 
 43692.65567		 740.62630			42952.02937		223.78800		875.00000 
 43692.65567		 305.27265			43387.38302		66.20600		324.00000 
 43692.65567		 740.62630			42952.02937		223.78800		875.00000 
 43692.65567		 305.27265			43387.38302		66.20600		324.00000 
 43692.65567		 740.62630			42952.02937		223.78800		875.00000 
 43692.65567		 305.27265			43387.38302		66.20600		324.00000 
 43692.65567		 740.62630			42952.02937		223.78800		875.00000 
 43692.65567		 305.27265			43387.38302		66.20600		324.00000 
 43692.65567		 740.62630			42952.02937		223.78800		875.00000 
 43692.65567		 305.27265			43387.38302		66.20600		324.00000 
 43692.65567		 740.62630			42952.02937		223.78800		875.00000 
 43692.65567		 305.27265			43387.38302		66.20600		324.00000 
 43692.65567		 740.62630			42952.02937		223.78800		875.00000 
 43692.65567		 305.27265			43387.38302		66.20600		324.00000 
 43692.65567		 740.62630			42952.02937		223.78800		875.00000 
 43692.65567		 305.27265			43387.38302		66.20600		324.00000 
 43692.65567		 740.62630			42952.02937		223.78800		875.00000 
 43692.65567		 305.27265			43387.38302		66.20600		324.00000 
 43692.65567		 740.62630			42952.02937		223.78800		875.00000 
 43692.65567		 305.27265			43387.38302		66.20600		324.00000 
 43692.65567		 740.62630			42952.02937		223.78800		875.00000 
 43692.65567		 305.27265			43387.38302		66.20600		324.00000 
 43692.65567		 740.62630			42952.02937		223.78800		875.00000 
 43692.65567		 305.27265			43387.38302		66.20600		324.00000 
 43692.65567		 740.62630			42952.02937		223.78800		875.00000 
 43692.65567		 305.27265			43387.38302		66.20600		324.00000 
 43692.65567		 740.62630			42952.02937		223.78800		875.00000 
 43692.65567		 305.27265			43387.38302		66.20600		324.00000 
 43692.65567		 740.62630			42952.02937		223.78800		875.00000 
 43692.65567		 305.27265			43387.38302		66.20600		324.00000 
 43692.65567		 740.62630			42952.02937		223.78800		875.00000 
 43692.65567		 305.27265			43387.38302		66.20600		324.00000 
 43692.65567		 740.62630			42952.02937		223.78800		875.00000 
 43692.65567		 305.27265			43387.38302		66.20600		324.00000 
 43692.65567		 740.62630			42952.02937		223.78800		875.00000 
 43692.65567		 305.27265			43387.38302		66.20600		324.00000 
 43692.65567		 740.62630			42952.02937		223.78800		875.00000 
 43692.65567		 305.27265			43387.38302		66.20600		324.00000 
 43692.65567		 740.62630			42952.02937		223.78800		875.00000 
 43692.65567		 305.27265			43387.38302		66.20600		324.00000 
 43692.65567		 740.62630			42952.02937		223.78800		875.00000 
 43692.65567		 305.27265			43387.38302		66.20600		324.00000 
 43692.65567		 740.62630			42952.02937		223.78800		875.00000 
 43692.65567		 305.27265			43387.38302		66.20600		324.00000 
 43692.65567		 740.62630			42952.02937		223.78800		875.00000 
 43692.65567		 305.27265			43387.38302		66.20600		324.00000 
 43692.65567		 740.62630			42952.02937		223.78800		875.00000 
 43692.65567		 305.27265			43387.38302		66.20600		324.00000 
 43692.65567		 740.62630			42952.02937		223.78800		875.00000 
 43692.65567		 305.27265			43387.38302		66.20600		324.00000 
 43692.65567		 740.62630			42952.02937		223.78800		875.00000 
 43692.65567		 305.27265			43387.38302		66.20600		324.00000 
 43692.65567		 740.62630			42952.02937		223.78800		875.00000 
 43692.65567		 305.27265			43387.38302		66.20600		324.00000 
 43692.65567		 740.62630			42952.02937		223.78800		875.00000 
 43692.65567		 305.27265			43387.38302		66.20600		324.00000 
 43692.65567		 740.62630			42952.02937		223.78800		875.00000 
 43692.65567		 305.27265			43387.38302		66.20600		324.00000 
 43692.65567		 740.62630			42952.02937		223.78800		875.00000 
 43692.65567		 305.27265			43387.38302		66.20600		324.00000 
 43692.65567		 740.62630			42952.02937		223.78800		875.00000 
 43692.65567		 305.27265			43387.38302		66.20600		324.00000 
 43692.65567		 740.62630			42952.02937		223.78800		875.00000 
 43692.65567		 305.27265			43387.38302		66.20600		324.00000 
 43692.65567		 740.62630			42952.02937		223.78800		875.00000 
 43692.65567		 305.27265			43387.38302		66.20600		324.00000 
 43692.65567		 740.62630			42952.02937		223.78800		875.00000 
 43692.65567		 305.27265			43387.38302		66.20600		324.00000 
 43692.65567		 740.62630			42952.02937		223.78800		875.00000 
 43692.65567		 305.27265			43387.38302		66.20600		324.00000 
 43692.65567		 740.62630			42952.02937		223.78800		875.00000 
 43692.65567		 305.27265			43387.38302		66.20600		324.00000 
 43692.65567		 740.62630			42952.02937		223.78800		875.00000 
 43692.65567		 305.27265			43387.38302		66.20600		324.00000 
 43692.65567		 740.62630			42952.02937		223.78800		875.00000 
 43692.65567		 305.27265			43387.38302		66.20600		324.00000 
 43692.65567		 740.62630			42952.02937		223.78800		875.00000 
 43692.65567		 305.27265			43387.38302		66.20600		324.00000 
 43692.65567		 740.62630			42952.02937		223.78800		875.00000 
 43692.65567		 305.27265			43387.38302		66.20600		324.00000 
 43692.65567		 740.62630			42952.02937		223.78800		875.00000 
 43692.65567		 305.27265			43387.38302		66.20600		324.00000 
 43692.65567		 740.62630			42952.02937		223.78800		875.00000 
 43692.65567		 305.27265			43387.38302		66.20600		324.00000 
 43692.65567		 740.62630			42952.02937		223.78800		875.00000 
 43692.65567		 305.27265			43387.38302		66.20600		324.00000 
 43692.65567		 740.62630			42952.02937		223.78800		875.00000 
 43692.65567		 305.27265			43387.38302		66.20600		324.00000 
 43692.65567		 740.62630			42952.02937		223.78800		875.00000 
 43692.65567		 305.27265			43387.38302		66.20600		324.00000 
 43692.65567		 740.62630			42952.02937		223.78800		875.00000 
 43692.65567		 305.27265			43387.38302		66.20600		324.00000 
 43692.65567		 740.62630			42952.02937		223.78800		875.00000 
 43692.65567		 305.27265			43387.38302		66.20600		324.00000 
 43692.65567		 740.62630			42952.02937		223.78800		875.00000 
 43692.65567		 305.27265			43387.38302		66.20600		324.00000 
 43692.65567		 740.62630			42952.02937		223.78800		875.00000 
 43692.65567		 305.27265			43387.38302		66.20600		324.00000 
 43692.65567		 740.62630			42952.02937		223.78800		875.00000 
 43692.65567		 305.27265			43387.38302		66.20600		324.00000 
 43692.65567		 740.62630			42952.02937		223.78800		875.00000 
 43692.65567		 305.27265			43387.38302		66.20600		324.00000 
 43692.65567		 740.62630			42952.02937		223.78800		875.00000 
 43692.65567		 305.27265			43387.38302		66.20600		324.00000 
 43692.65567		 740.62630			42952.02937		223.78800		875.00000 
 43692.65567		 305.27265			43387.38302		66.20600		324.00000 
 43692.65567		 740.62630			42952.02937		223.78800		875.00000 
 43692.65567		 305.27265			43387.38302		66.20600		324.00000 
 43692.65567		 740.62630			42952.02937		223.78800		875.00000 
 43692.65567		 305.27265			43387.38302		66.20600		324.00000 
 43692.65567		 740.62630			42952.02937		223.78800		875.00000 
 43692.65567		 305.27265			43387.38302		66.20600		324.00000 
 43692.65567		 740.62630			42952.02937		223.78800		875.00000 
 43692.65567		 305.27265			43387.38302		66.20600		324.00000 
 43692.65567		 740.62630			42952.02937		223.78800		875.00000 
 43692.65567		 305.27265			43387.38302		66.20600		324.00000 
 43692.65567		 740.62630			42952.02937		223.78800		875.00000 
 43692.65567		 305.27265			43387.38302		66.20600		324.00000 
 43692.65567		 740.62630			42952.02937		223.78800		875.00000 
 43692.65567		 305.27265			43387.38302		66.20600		324.00000 
 43692.65567		 740.62630			42952.02937		223.78800		875.00000 
 43692.65567		 305.27265			43387.38302		66.20600		324.00000 
 43692.65567		 740.62630			42952.02937		223.78800		875.00000 
 43692.65567		 305.27265			43387.38302		66.20600		324.00000 
 43692.65567		 740.62630			42952.02937		223.78800		875.00000 
 43692.65567		 305.27265			43387.38302		66.20600		324.00000 
 43692.65567		 740.62630			42952.02937		223.78800		875.00000 
 43692.65567		 305.27265			43387.38302		66.20600		324.00000 
 43692.65567		 740.62630			42952.02937		223.78800		875.00000 
 43692.65567		 305.27265			43387.38302		66.20600		324.00000 
 43692.65567		 740.62630			42952.02937		223.78800		875.00000 
 43692.65567		 305.27265			43387.38302		66.20600		324.00000 
 43692.65567		 740.62630			42952.02937		223.78800		875.00000 
 43692.65567		 305.27265			43387.38302		66.20600		324.00000 
 43692.65567		 740.62630			42952.02937		223.78800		875.00000 
 43692.65567		 305.27265			43387.38302		66.20600		324.00000 
 43692.65567		 740.62630			42952.02937		223.78800		875.00000 
 43692.65567		 305.27265			43387.38302		66.20600		324.00000 
 43692.65567		 740.62630			42952.02937		223.78800		875.00000 
 43692.65567		 305.27265			43387.38302		66.20600		324.00000 
 43692.65567		 740.62630			42952.02937		223.78800		875.00000 
 43692.65567		 305.27265			43387.38302		66.20600		324.00000 
 43692.65567		 740.62630			42952.02937		223.78800		875.00000 
 43692.65567		 305.27265			43387.38302		66.20600		324.00000 
 43692.65567		 740.62630			42952.02937		223.78800		875.00000 
 43692.65567		 305.27265			43387.38302		66.20600		324.00000 
 43692.65567		 740.62630			42952.02937		223.78800		875.00000 
 43692.65567		 305.27265			43387.38302		66.20600		324.00000 
 43692.65567		 740.62630			42952.02937		223.78800		875.00000 
 43692.65567		 305.27265			43387.38302		66.20600		324.00000 
 43692.65567		 740.62630			42952.02937		223.78800		875.00000 
 43692.65567		 305.27265			43387.38302		66.20600		324.00000 
 43692.65567		 740.62630			42952.02937		223.78800		875.00000 
 43692.65567		 305.27265			43387.38302		66.20600		324.00000 
 43692.65567		 740.62630			42952.02937		223.78800		875.00000 
 43692.65567		 305.27265			43387.38302		66.20600		324.00000 
 43692.65567		 740.62630			42952.02937		223.78800		875.00000 
 43692.65567		 305.27265			43387.38302		66.20600		324.00000 
 43692.65567		 740.62630			42952.02937		223.78800		875.00000 
 43692.65567		 305.27265			43387.38302		66.20600		324.00000 
 43692.65567		 740.62630			42952.02937		223.78800		875.00000 
 43692.65567		 305.27265			43387.38302		66.20600		324.00000 
 43692.65567		 740.62630			42952.02937		223.78800		875.00000 
 43692.65567		 305.27265			43387.38302		66.20600		324.00000 
 43692.65567		 740.62630			42952.02937		223.78800		875.00000 
 43692.65567		 305.27265			43387.38302		66.20600		324.00000 
 43692.65567		 740.62630			42952.02937		223.78800		875.00000 
 43692.65567		 305.27265			43387.38302		66.20600		324.00000 
 43692.65567		 740.62630			42952.02937		223.78800		875.00000 
 43692.65567		 305.27265			43387.38302		66.20600		324.00000 
 43692.65567		 740.62630			42952.02937		223.78800		875.00000 
 43692.65567		 305.27265			43387.38302		66.20600		324.00000 
 43692.65567		 740.62630			42952.02937		223.78800		875.00000 
 43692.65567		 305.27265			43387.38302		66.20600		324.00000 
 43692.65567		 740.62630			42952.02937		223.78800		875.00000 
 43692.65567		 305.27265			43387.38302		66.20600		324.00000 
 43692.65567		 740.62630			42952.02937		223.78800		875.00000 
 43692.65567		 305.27265			43387.38302		66.20600		324.00000 
 43692.65567		 740.62630			42952.02937		223.78800		875.00000 
 43692.65567		 305.27265			43387.38302		66.20600		324.00000 
 43692.65567		 740.62630			42952.02937		223.78800		875.00000 
 43692.65567		 305.27265			43387.38302		66.20600		324.00000 
 43692.65567		 740.62630			42952.02937		223.78800		875.00000 
 43692.65567		 305.27265			43387.38302		66.20600		324.00000 
 43692.65567		 740.62630			42952.02937		223.78800		875.00000 
 43692.65567		 305.27265			43387.38302		66.20600		324.00000 
 43692.65567		 740.62630			42952.02937		223.78800		875.00000 
 43692.65567		 305.27265			43387.38302		66.20600		324.00000 
 43692.65567		 740.62630			42952.02937		223.78800		875.00000 
 43692.65567		 305.27265			43387.38302		66.20600		324.00000 
 43692.65567		 740.62630			42952.02937		223.78800		875.00000 
 43692.65567		 305.27265			43387.38302		66.20600		324.00000 
 43692.65567		 740.62630			42952.02937		223.78800		875.00000 
 43692.65567		 305.27265			43387.38302		66.20600		324.00000 
 43692.65567		 740.62630			42952.02937		223.78800		875.00000 
 43692.65567		 305.27265			43387.38302		66.20600		324.00000 
 43692.65567		 740.62630			42952.02937		223.78800		875.00000 
 43692.65567		 305.27265			43387.38302		66.20600		324.00000 
 43692.65567		 740.62630			42952.02937		223.78800		875.00000 
 43692.65567		 305.27265			43387.38302		66.20600		324.00000 
 43692.65567		 740.62630			42952.02937		223.78800		875.00000 
 43692.65567		 305.27265			43387.38302		70.12600		324.00000 
 43692.65567		 740.62630			42952.02937		223.78800		875.00000 
 43692.65567		 305.27265			43387.38302		70.12600		324.00000 
 43692.65567		 740.62630			42952.02937		223.78800		875.00000 
 43692.65567		 305.27265			43387.38302		70.12600		324.00000 
 43692.65567		 740.62630			42952.02937		223.78800		875.00000 
 43692.65567		 305.27265			43387.38302		70.12600		324.00000 
 43692.65567		 740.62630			42952.02937		223.78800		875.00000 
 43692.65567		 305.27265			43387.38302		70.12600		324.00000 
 43692.65567		 740.62630			42952.02937		223.78800		875.00000 
 43692.65567		 305.27265			43387.38302		70.12600		324.00000 
 43692.65567		 740.62630			42952.02937		223.78800		875.00000 
 43692.65567		 305.27265			43387.38302		70.12600		324.00000 
 43692.65567		 740.62630			42952.02937		223.78800		875.00000 
 43692.65567		 305.27265			43387.38302		70.12600		324.00000 
 43692.65567		 740.62630			42952.02937		223.78800		875.00000 
 43692.65567		 305.27265			43387.38302		70.12600		324.00000 
 43692.65567		 740.62630			42952.02937		223.78800		875.00000 
 43692.65567		 305.27265			43387.38302		70.12600		324.00000 
 43692.65567		 740.62630			42952.02937		223.78800		875.00000 
 43692.65567		 305.27265			43387.38302		70.12600		324.00000 
 43692.65567		 740.62630			42952.02937		223.78800		875.00000 
 43692.65567		 305.27265			43387.38302		70.12600		324.00000 
 43692.65567		 740.62630			42952.02937		224.38800		875.00000 
 43692.65567		 305.27265			43387.38302		70.12600		324.00000 
 43692.65567		 740.62630			42952.02937		224.38800		875.00000 
 43692.65567		 305.27265			43387.38302		70.12600		324.00000 
 43692.65567		 740.62630			42952.02937		224.38800		875.00000 
 43692.65567		 305.27265			43387.38302		70.12600		324.00000 
 43692.65567		 740.62630			42952.02937		224.38800		875.00000 
 43692.65567		 305.27265			43387.38302		70.12600		324.00000 
 43692.65567		 740.62630			42952.02937		224.38800		875.00000 
 43692.65567		 305.27265			43387.38302		70.12600		324.00000 
 43692.65567		 740.62630			42952.02937		224.38800		875.00000 
 43692.65567		 305.27265			43387.38302		70.12600		324.00000 
 43692.65567		 740.62630			42952.02937		224.38800		875.00000 
 43692.65567		 305.27265			43387.38302		70.12600		324.00000 
 43692.65567		 740.62630			42952.02937		224.38800		875.00000 
 43692.65567		 305.27265			43387.38302		70.12600		324.00000 
 43692.65567		 740.62630			42952.02937		224.38800		875.00000 
 43692.65567		 305.27265			43387.38302		70.12600		324.00000 
 43692.65567		 740.62630			42952.02937		224.38800		875.00000 
 43692.65567		 305.27265			43387.38302		70.12600		324.00000 
 43692.65567		 740.62630			42952.02937		224.38800		875.00000 
 43692.65567		 305.27265			43387.38302		70.12600		324.00000 
 43692.65567		 740.62630			42952.02937		224.38800		875.00000 
 43692.65567		 305.27265			43387.38302		70.12600		324.00000 
 43692.65567		 740.62630			42952.02937		224.38800		875.00000 
 43692.65567		 305.27265			43387.38302		70.12600		324.00000 
 43692.65567		 740.62630			42952.02937		224.38800		875.00000 
 43692.65567		 305.27265			43387.38302		70.12600		324.00000 
 43692.65567		 740.62630			42952.02937		224.38800		875.00000 
 43692.65567		 305.27265			43387.38302		70.12600		324.00000 
 43692.65567		 740.62630			42952.02937		224.38800		875.00000 
 43692.65567		 305.27265			43387.38302		70.12600		324.00000 
 43692.65567		 740.62630			42952.02937		224.38800		875.00000 
 43692.65567		 305.27265			43387.38302		70.12600		324.00000 
 43692.65567		 740.62630			42952.02937		224.38800		875.00000 
 43692.65567		 305.27265			43387.38302		70.12600		324.00000 
 43692.65567		 740.62630			42952.02937		224.38800		875.00000 
 43692.65567		 305.27265			43387.38302		70.12600		324.00000 
 43692.65567		 740.62630			42952.02937		224.38800		875.00000 
 43692.65567		 305.27265			43387.38302		70.12600		324.00000 
 43692.65567		 740.62630			42952.02937		224.38800		875.00000 
 43692.65567		 305.27265			43387.38302		70.12600		324.00000 
 43692.65567		 740.62630			42952.02937		224.38800		875.00000 
 43692.65567		 305.27265			43387.38302		70.12600		324.00000 
 43692.65567		 740.62630			42952.02937		224.38800		875.00000 
 43692.65567		 305.27265			43387.38302		70.12600		324.00000 
 43692.65567		 740.62630			42952.02937		224.38800		875.00000 
 43692.65567		 305.27265			43387.38302		70.12600		324.00000 
 43692.65567		 740.62630			42952.02937		224.38800		875.00000 
 43692.65567		 305.27265			43387.38302		70.12600		324.00000 
 43692.65567		 740.62630			42952.02937		224.38800		875.00000 
 43692.65567		 305.27265			43387.38302		70.12600		324.00000 
 43692.65567		 740.62630			42952.02937		224.38800		875.00000 
 43692.65567		 305.27265			43387.38302		70.12600		324.00000 
 43692.65567		 740.62630			42952.02937		224.38800		875.00000 
 43692.65567		 305.27265			43387.38302		70.12600		324.00000 
 43692.65567		 740.62630			42952.02937		224.38800		875.00000 
 43692.65567		 305.27265			43387.38302		70.12600		324.00000 
 43692.65567		 740.62630			42952.02937		224.38800		875.00000 
 43692.65567		 305.27265			43387.38302		70.12600		324.00000 
 43692.65567		 740.62630			42952.02937		224.38800		875.00000 
 43692.65567		 305.27265			43387.38302		70.12600		324.00000 
 43692.65567		 740.62630			42952.02937		224.38800		875.00000 
 43692.65567		 305.27265			43387.38302		70.12600		324.00000 
 43692.65567		 740.62630			42952.02937		224.38800		875.00000 
 43692.65567		 305.27265			43387.38302		70.12600		324.00000 
 43692.65567		 740.62630			42952.02937		224.38800		875.00000 
 43692.65567		 305.27265			43387.38302		70.12600		324.00000 
 43692.65567		 740.62630			42952.02937		224.38800		875.00000 
 43692.65567		 305.27265			43387.38302		70.12600		324.00000 
 43692.65567		 740.62630			42952.02937		224.38800		875.00000 
 43692.65567		 305.27265			43387.38302		70.12600		324.00000 
 43692.65567		 740.62630			42952.02937		224.38800		875.00000 
 43692.65567		 305.27265			43387.38302		70.12600		324.00000 
 43692.65567		 740.62630			42952.02937		224.38800		875.00000 
 43692.65567		 305.27265			43387.38302		70.12600		324.00000 
 43692.65567		 740.62630			42952.02937		224.38800		875.00000 
 43692.65567		 305.27265			43387.38302		70.12600		324.00000 
 43692.65567		 740.62630			42952.02937		224.38800		875.00000 
 43692.65567		 305.27265			43387.38302		70.12600		324.00000 
 43692.65567		 740.62630			42952.02937		224.38800		875.00000 
 43692.65567		 305.27265			43387.38302		70.12600		324.00000 
 43692.65567		 740.62630			42952.02937		224.38800		875.00000 
 43692.65567		 305.27265			43387.38302		70.12600		324.00000 
 43692.65567		 740.62630			42952.02937		224.38800		875.00000 
 43692.65567		 305.27265			43387.38302		70.12600		324.00000 
 43692.65567		 740.62630			42952.02937		224.38800		875.00000 
 43692.65567		 305.27265			43387.38302		70.12600		324.00000 
 43692.65567		 740.62630			42952.02937		224.38800		875.00000 
 43692.65567		 305.27265			43387.38302		70.12600		324.00000 
 43692.65567		 740.62630			42952.02937		224.38800		875.00000 
 43692.65567		 305.27265			43387.38302		70.12600		324.00000 
 43692.65567		 672.84098			43019.81470		224.38800		875.00000 
 43692.65567		 305.27265			43387.38302		70.12600		324.00000 
 43692.65567		 605.05565			43087.60002		224.38800		875.00000 
 43692.65567		 305.27265			43387.38302		70.12600		324.00000 
 43692.65567		 537.27032			43155.38535		224.38800		875.00000 
 43692.65567		 305.27265			43387.38302		70.12600		324.00000 
 43692.65567		 537.27032			43155.38535		224.38800		875.00000 
 43692.65567		 305.27265			43387.38302		70.12600		324.00000 
 43692.65567		 537.27032			43155.38535		224.38800		875.00000 
 43692.65567		 305.27265			43387.38302		70.12600		324.00000 
 43692.65567		 537.27032			43155.38535		224.38800		875.00000 
 43692.65567		 305.27265			43387.38302		70.12600		324.00000 
 43692.65567		 537.27032			43155.38535		224.38800		875.00000 
 43692.65567		 305.27265			43387.38302		70.12600		324.00000 
 43692.65567		 537.27032			43155.38535		224.38800		875.00000 
 43692.65567		 305.27265			43387.38302		70.12600		324.00000 
 43692.65567		 537.27032			43155.38535		224.38800		875.00000 
 43692.65567		 305.27265			43387.38302		70.12600		324.00000 
 43692.65567		 537.27032			43155.38535		224.38800		875.00000 
 43692.65567		 305.27265			43387.38302		70.12600		324.00000 
 43692.65567		 537.27032			43155.38535		224.38800		875.00000 
 43692.65567		 305.27265			43387.38302		70.12600		324.00000 
 43692.65567		 537.27032			43155.38535		224.38800		875.00000 
 43692.65567		 305.27265			43387.38302		70.12600		324.00000 
 43692.65567		 537.27032			43155.38535		224.38800		875.00000 
 43692.65567		 305.27265			43387.38302		70.12600		324.00000 
 43692.65567		 537.27032			43155.38535		224.38800		875.00000 
 43692.65567		 305.27265			43387.38302		70.12600		324.00000 
 43692.65567		 537.27032			43155.38535		224.38800		875.00000 
 43692.65567		 305.27265			43387.38302		70.12600		324.00000 
 43692.65567		 537.27032			43155.38535		202.11600		875.00000 
 43692.65567		 305.27265			43387.38302		70.12600		324.00000 
 43692.65567		 537.27032			43155.38535		202.11600		875.00000 
 43692.65567		 305.27265			43387.38302		70.12600		324.00000 
 43692.65567		 537.27032			43155.38535		202.11600		875.00000 
 43692.65567		 305.27265			43387.38302		70.12600		324.00000 
 43692.65567		 537.27032			43155.38535		202.11600		875.00000 
 43692.65567		 305.27265			43387.38302		70.12600		324.00000 
 43692.65567		 537.27032			43155.38535		202.11600		875.00000 
 43692.65567		 305.27265			43387.38302		70.12600		324.00000 
 43692.65567		 537.27032			43155.38535		202.11600		875.00000 
 43692.65567		 305.27265			43387.38302		70.12600		324.00000 
 43692.65567		 537.27032			43155.38535		202.11600		875.00000 
 43692.65567		 305.27265			43387.38302		70.12600		324.00000 
 43692.65567		 525.81365			43166.84203		202.11600		875.00000 
 43692.65567		 305.27265			43387.38302		70.12600		324.00000 
 43692.65567		 525.81365			43166.84203		202.11600		875.00000 
 43692.65567		 261.35540			43431.30027		70.12600		324.00000 
 43692.65567		 261.35540			43431.30027		202.11600		875.00000 
 43692.65567		 261.35540			43431.30027		70.12600		324.00000 
