Memory Total (MiB) 	 Memory Used (MiB) 	    Memory Free (MiB) 	 Power Drawed (W) 	 Clocks (Mhz) 	 
 43692.65567		 261.35540			43431.30027		183.03800		875.00000 
 43692.65567		 261.35540			43431.30027		70.72800		324.00000 
 43692.65567		 261.35540			43431.30027		183.03800		875.00000 
 43692.65567		 261.35540			43431.30027		70.72800		324.00000 
 43692.65567		 261.35540			43431.30027		183.03800		875.00000 
 43692.65567		 261.35540			43431.30027		70.72800		324.00000 
 43692.65567		 261.35540			43431.30027		183.03800		875.00000 
 43692.65567		 261.35540			43431.30027		70.72800		324.00000 
 43692.65567		 261.35540			43431.30027		183.03800		875.00000 
 43692.65567		 261.35540			43431.30027		70.72800		324.00000 
 43692.65567		 261.35540			43431.30027		183.03800		875.00000 
 43692.65567		 261.35540			43431.30027		70.72800		324.00000 
 43692.65567		 261.35540			43431.30027		183.03800		875.00000 
 43692.65567		 261.35540			43431.30027		70.72800		324.00000 
 43692.65567		 261.35540			43431.30027		183.03800		875.00000 
 43692.65567		 261.35540			43431.30027		70.72800		324.00000 
 43692.65567		 261.35540			43431.30027		183.03800		875.00000 
 43692.65567		 261.35540			43431.30027		70.72800		324.00000 
 43692.65567		 261.35540			43431.30027		183.03800		875.00000 
 43692.65567		 261.35540			43431.30027		70.72800		324.00000 
 43692.65567		 261.35540			43431.30027		183.03800		875.00000 
 43692.65567		 261.35540			43431.30027		70.72800		324.00000 
 43692.65567		 261.35540			43431.30027		151.79000		875.00000 
 43692.65567		 261.35540			43431.30027		70.72800		324.00000 
 43692.65567		 261.35540			43431.30027		151.79000		875.00000 
 43692.65567		 261.35540			43431.30027		70.72800		324.00000 
 43692.65567		 261.35540			43431.30027		151.79000		875.00000 
 43692.65567		 261.35540			43431.30027		70.72800		324.00000 
 43692.65567		 261.35540			43431.30027		151.79000		875.00000 
 43692.65567		 261.35540			43431.30027		70.72800		324.00000 
 43692.65567		 261.35540			43431.30027		151.79000		875.00000 
 43692.65567		 261.35540			43431.30027		70.72800		324.00000 
 43692.65567		 261.35540			43431.30027		151.79000		875.00000 
 43692.65567		 261.35540			43431.30027		70.72800		324.00000 
 43692.65567		 261.35540			43431.30027		151.79000		875.00000 
 43692.65567		 261.35540			43431.30027		70.72800		324.00000 
 43692.65567		 265.17429			43427.48138		151.79000		875.00000 
 43692.65567		 261.35540			43431.30027		70.72800		324.00000 
 43692.65567		 265.17429			43427.48138		151.79000		875.00000 
 43692.65567		 261.35540			43431.30027		70.72800		324.00000 
 43692.65567		 272.81207			43419.84360		151.79000		875.00000 
 43692.65567		 261.35540			43431.30027		70.72800		324.00000 
 43692.65567		 272.81207			43419.84360		151.79000		875.00000 
 43692.65567		 261.35540			43431.30027		70.72800		324.00000 
 43692.65567		 272.81207			43419.84360		151.79000		875.00000 
 43692.65567		 265.17429			43427.48138		70.72800		324.00000 
 43692.65567		 272.81207			43419.84360		151.79000		875.00000 
 43692.65567		 265.17429			43427.48138		70.72800		324.00000 
 43692.65567		 272.81207			43419.84360		151.79000		875.00000 
 43692.65567		 265.17429			43427.48138		70.72800		324.00000 
 43692.65567		 272.81207			43419.84360		151.79000		875.00000 
 43692.65567		 272.81207			43419.84360		70.72800		324.00000 
 43692.65567		 272.81207			43419.84360		151.79000		875.00000 
 43692.65567		 272.81207			43419.84360		70.72800		324.00000 
 43692.65567		 272.81207			43419.84360		151.79000		875.00000 
 43692.65567		 272.81207			43419.84360		70.72800		324.00000 
 43692.65567		 305.27265			43387.38302		151.79000		875.00000 
 43692.65567		 305.27265			43387.38302		70.72800		324.00000 
 43692.65567		 305.27265			43387.38302		151.79000		875.00000 
 43692.65567		 305.27265			43387.38302		70.72800		324.00000 
 43692.65567		 305.27265			43387.38302		151.79000		875.00000 
 43692.65567		 305.27265			43387.38302		70.72800		324.00000 
 43692.65567		 305.27265			43387.38302		151.79000		875.00000 
 43692.65567		 305.27265			43387.38302		70.72800		324.00000 
 43692.65567		 305.27265			43387.38302		151.79000		875.00000 
 43692.65567		 305.27265			43387.38302		70.72800		324.00000 
 43692.65567		 309.09154			43383.56413		151.79000		875.00000 
 43692.65567		 305.27265			43387.38302		70.72800		324.00000 
 43692.65567		 310.52363			43382.13204		151.79000		875.00000 
 43692.65567		 305.27265			43387.38302		70.72800		324.00000 
 43692.65567		 311.00099			43381.65468		151.79000		875.00000 
 43692.65567		 305.27265			43387.38302		70.72800		324.00000 
 43692.65567		 311.00099			43381.65468		151.79000		875.00000 
 43692.65567		 305.27265			43387.38302		70.72800		324.00000 
 43692.65567		 311.00099			43381.65468		151.79000		875.00000 
 43692.65567		 305.27265			43387.38302		70.72800		324.00000 
 43692.65567		 311.00099			43381.65468		151.79000		875.00000 
 43692.65567		 305.27265			43387.38302		70.72800		324.00000 
 43692.65567		 311.00099			43381.65468		151.79000		875.00000 
 43692.65567		 305.27265			43387.38302		70.72800		324.00000 
 43692.65567		 311.00099			43381.65468		151.79000		875.00000 
 43692.65567		 305.27265			43387.38302		70.72800		324.00000 
 43692.65567		 311.00099			43381.65468		151.79000		875.00000 
 43692.65567		 305.27265			43387.38302		70.72800		324.00000 
 43692.65567		 311.00099			43381.65468		151.79000		875.00000 
 43692.65567		 305.27265			43387.38302		70.72800		324.00000 
 43692.65567		 311.00099			43381.65468		151.79000		875.00000 
 43692.65567		 305.27265			43387.38302		70.72800		324.00000 
 43692.65567		 311.00099			43381.65468		139.28000		875.00000 
 43692.65567		 305.27265			43387.38302		70.72800		324.00000 
 43692.65567		 311.00099			43381.65468		139.28000		875.00000 
 43692.65567		 305.27265			43387.38302		70.72800		324.00000 
 43692.65567		 311.00099			43381.65468		139.28000		875.00000 
 43692.65567		 305.27265			43387.38302		70.72800		324.00000 
 43692.65567		 311.00099			43381.65468		139.28000		875.00000 
 43692.65567		 305.27265			43387.38302		70.72800		324.00000 
 43692.65567		 311.00099			43381.65468		139.28000		875.00000 
 43692.65567		 305.27265			43387.38302		70.72800		324.00000 
 43692.65567		 311.00099			43381.65468		139.28000		875.00000 
 43692.65567		 305.27265			43387.38302		70.72800		324.00000 
 43692.65567		 311.00099			43381.65468		139.28000		875.00000 
 43692.65567		 305.27265			43387.38302		70.72800		324.00000 
 43692.65567		 311.00099			43381.65468		139.28000		875.00000 
 43692.65567		 305.27265			43387.38302		70.72800		324.00000 
 43692.65567		 311.00099			43381.65468		139.28000		875.00000 
 43692.65567		 305.27265			43387.38302		70.72800		324.00000 
 43692.65567		 311.00099			43381.65468		139.28000		875.00000 
 43692.65567		 305.27265			43387.38302		70.72800		324.00000 
 43692.65567		 311.00099			43381.65468		139.28000		875.00000 
 43692.65567		 305.27265			43387.38302		70.72800		324.00000 
 43692.65567		 311.00099			43381.65468		139.28000		875.00000 
 43692.65567		 305.27265			43387.38302		70.72800		324.00000 
 43692.65567		 311.00099			43381.65468		139.28000		875.00000 
 43692.65567		 305.27265			43387.38302		70.72800		324.00000 
 43692.65567		 311.00099			43381.65468		139.28000		875.00000 
 43692.65567		 305.27265			43387.38302		70.72800		324.00000 
 43692.65567		 311.00099			43381.65468		139.28000		875.00000 
 43692.65567		 305.27265			43387.38302		70.72800		324.00000 
 43692.65567		 311.00099			43381.65468		139.28000		875.00000 
 43692.65567		 305.27265			43387.38302		70.72800		324.00000 
 43692.65567		 311.00099			43381.65468		139.28000		875.00000 
 43692.65567		 305.27265			43387.38302		70.72800		324.00000 
 43692.65567		 311.00099			43381.65468		139.28000		875.00000 
 43692.65567		 305.27265			43387.38302		70.72800		324.00000 
 43692.65567		 311.00099			43381.65468		139.28000		875.00000 
 43692.65567		 305.27265			43387.38302		70.72800		324.00000 
 43692.65567		 311.00099			43381.65468		139.28000		875.00000 
 43692.65567		 305.27265			43387.38302		70.72800		324.00000 
 43692.65567		 311.00099			43381.65468		139.28000		875.00000 
 43692.65567		 305.27265			43387.38302		70.72800		324.00000 
 43692.65567		 311.00099			43381.65468		139.28000		875.00000 
 43692.65567		 305.27265			43387.38302		70.72800		324.00000 
 43692.65567		 311.00099			43381.65468		139.28000		875.00000 
 43692.65567		 305.27265			43387.38302		70.72800		324.00000 
 43692.65567		 311.00099			43381.65468		139.28000		875.00000 
 43692.65567		 305.27265			43387.38302		70.72800		324.00000 
 43692.65567		 311.00099			43381.65468		139.28000		875.00000 
 43692.65567		 305.27265			43387.38302		70.72800		324.00000 
 43692.65567		 311.00099			43381.65468		139.28000		875.00000 
 43692.65567		 305.27265			43387.38302		70.72800		324.00000 
 43692.65567		 311.00099			43381.65468		139.28000		875.00000 
 43692.65567		 305.27265			43387.38302		70.72800		324.00000 
 43692.65567		 311.00099			43381.65468		139.28000		875.00000 
 43692.65567		 305.27265			43387.38302		70.72800		324.00000 
 43692.65567		 311.00099			43381.65468		139.28000		875.00000 
 43692.65567		 305.27265			43387.38302		70.72800		324.00000 
 43692.65567		 311.00099			43381.65468		139.28000		875.00000 
 43692.65567		 305.27265			43387.38302		70.72800		324.00000 
 43692.65567		 311.00099			43381.65468		139.28000		875.00000 
 43692.65567		 305.27265			43387.38302		70.72800		324.00000 
 43692.65567		 311.00099			43381.65468		135.03600		875.00000 
 43692.65567		 305.27265			43387.38302		70.72800		324.00000 
 43692.65567		 311.00099			43381.65468		135.03600		875.00000 
 43692.65567		 305.27265			43387.38302		70.72800		324.00000 
 43692.65567		 311.00099			43381.65468		135.03600		875.00000 
 43692.65567		 305.27265			43387.38302		70.72800		324.00000 
 43692.65567		 311.00099			43381.65468		135.03600		875.00000 
 43692.65567		 305.27265			43387.38302		70.72800		324.00000 
 43692.65567		 311.00099			43381.65468		135.03600		875.00000 
 43692.65567		 305.27265			43387.38302		70.72800		324.00000 
 43692.65567		 311.00099			43381.65468		135.03600		875.00000 
 43692.65567		 305.27265			43387.38302		70.72800		324.00000 
 43692.65567		 311.00099			43381.65468		135.03600		875.00000 
 43692.65567		 305.27265			43387.38302		70.72800		324.00000 
 43692.65567		 311.00099			43381.65468		135.03600		875.00000 
 43692.65567		 305.27265			43387.38302		70.72800		324.00000 
 43692.65567		 311.00099			43381.65468		135.03600		875.00000 
 43692.65567		 305.27265			43387.38302		70.72800		324.00000 
 43692.65567		 311.00099			43381.65468		135.03600		875.00000 
 43692.65567		 305.27265			43387.38302		70.72800		324.00000 
 43692.65567		 311.00099			43381.65468		135.03600		875.00000 
 43692.65567		 305.27265			43387.38302		70.72800		324.00000 
 43692.65567		 314.81988			43377.83579		135.03600		875.00000 
 43692.65567		 305.27265			43387.38302		70.72800		324.00000 
 43692.65567		 314.81988			43377.83579		135.03600		875.00000 
 43692.65567		 305.27265			43387.38302		70.72800		324.00000 
 43692.65567		 314.81988			43377.83579		135.03600		875.00000 
 43692.65567		 305.27265			43387.38302		70.72800		324.00000 
 43692.65567		 318.63877			43374.01690		135.03600		875.00000 
 43692.65567		 305.27265			43387.38302		70.72800		324.00000 
 43692.65567		 322.45767			43370.19801		135.03600		875.00000 
 43692.65567		 305.27265			43387.38302		70.72800		324.00000 
 43692.65567		 326.27656			43366.37912		135.03600		875.00000 
 43692.65567		 305.27265			43387.38302		70.72800		324.00000 
 43692.65567		 326.27656			43366.37912		135.03600		875.00000 
 43692.65567		 305.27265			43387.38302		70.72800		324.00000 
 43692.65567		 326.27656			43366.37912		135.03600		875.00000 
 43692.65567		 305.27265			43387.38302		70.72800		324.00000 
 43692.65567		 537.27032			43155.38535		135.03600		875.00000 
 43692.65567		 305.27265			43387.38302		70.72800		324.00000 
 43692.65567		 812.23052			42880.42515		135.03600		875.00000 
 43692.65567		 305.27265			43387.38302		70.72800		324.00000 
 43692.65567		 949.71062			42742.94505		135.03600		875.00000 
 43692.65567		 305.27265			43387.38302		70.72800		324.00000 
 43692.65567		 949.71062			42742.94505		135.03600		875.00000 
 43692.65567		 305.27265			43387.38302		70.72800		324.00000 
 43692.65567		 949.71062			42742.94505		135.03600		875.00000 
 43692.65567		 305.27265			43387.38302		70.72800		324.00000 
 43692.65567		 949.71062			42742.94505		135.03600		875.00000 
 43692.65567		 305.27265			43387.38302		70.72800		324.00000 
 43692.65567		 949.71062			42742.94505		135.03600		875.00000 
 43692.65567		 305.27265			43387.38302		70.72800		324.00000 
 43692.65567		 949.71062			42742.94505		135.03600		875.00000 
 43692.65567		 305.27265			43387.38302		70.72800		324.00000 
 43692.65567		 949.71062			42742.94505		135.03600		875.00000 
 43692.65567		 305.27265			43387.38302		70.72800		324.00000 
 43692.65567		 949.71062			42742.94505		135.03600		875.00000 
 43692.65567		 305.27265			43387.38302		70.72800		324.00000 
 43692.65567		 949.71062			42742.94505		135.03600		875.00000 
 43692.65567		 305.27265			43387.38302		70.72800		324.00000 
 43692.65567		 949.71062			42742.94505		135.03600		875.00000 
 43692.65567		 305.27265			43387.38302		70.72800		324.00000 
 43692.65567		 949.71062			42742.94505		135.03600		875.00000 
 43692.65567		 305.27265			43387.38302		70.72800		324.00000 
 43692.65567		 949.71062			42742.94505		135.03600		875.00000 
 43692.65567		 305.27265			43387.38302		70.72800		324.00000 
 43692.65567		 949.71062			42742.94505		135.03600		875.00000 
 43692.65567		 305.27265			43387.38302		70.72800		324.00000 
 43692.65567		 949.71062			42742.94505		135.03600		875.00000 
 43692.65567		 305.27265			43387.38302		70.72800		324.00000 
 43692.65567		 949.71062			42742.94505		135.03600		875.00000 
 43692.65567		 305.27265			43387.38302		70.72800		324.00000 
 43692.65567		 949.71062			42742.94505		135.03600		875.00000 
 43692.65567		 305.27265			43387.38302		70.72800		324.00000 
 43692.65567		 949.71062			42742.94505		135.03600		875.00000 
 43692.65567		 305.27265			43387.38302		70.72800		324.00000 
 43692.65567		 949.71062			42742.94505		135.03600		875.00000 
 43692.65567		 305.27265			43387.38302		70.72800		324.00000 
 43692.65567		 949.71062			42742.94505		135.03600		875.00000 
 43692.65567		 305.27265			43387.38302		70.72800		324.00000 
 43692.65567		 949.71062			42742.94505		135.03600		875.00000 
 43692.65567		 305.27265			43387.38302		70.72800		324.00000 
 43692.65567		 949.71062			42742.94505		135.03600		875.00000 
 43692.65567		 305.27265			43387.38302		70.72800		324.00000 
 43692.65567		 949.71062			42742.94505		135.03600		875.00000 
 43692.65567		 305.27265			43387.38302		70.72800		324.00000 
 43692.65567		 949.71062			42742.94505		135.03600		875.00000 
 43692.65567		 305.27265			43387.38302		70.72800		324.00000 
 43692.65567		 949.71062			42742.94505		135.03600		875.00000 
 43692.65567		 305.27265			43387.38302		70.72800		324.00000 
 43692.65567		 949.71062			42742.94505		135.03600		875.00000 
 43692.65567		 305.27265			43387.38302		70.72800		324.00000 
 43692.65567		 949.71062			42742.94505		135.03600		875.00000 
 43692.65567		 305.27265			43387.38302		70.72800		324.00000 
 43692.65567		 949.71062			42742.94505		135.03600		875.00000 
 43692.65567		 305.27265			43387.38302		70.72800		324.00000 
 43692.65567		 949.71062			42742.94505		166.22800		875.00000 
 43692.65567		 305.27265			43387.38302		70.72800		324.00000 
 43692.65567		 949.71062			42742.94505		166.22800		875.00000 
 43692.65567		 305.27265			43387.38302		70.72800		324.00000 
 43692.65567		 949.71062			42742.94505		166.22800		875.00000 
 43692.65567		 305.27265			43387.38302		70.72800		324.00000 
 43692.65567		 949.71062			42742.94505		166.22800		875.00000 
 43692.65567		 305.27265			43387.38302		70.72800		324.00000 
 43692.65567		 949.71062			42742.94505		166.22800		875.00000 
 43692.65567		 305.27265			43387.38302		70.72800		324.00000 
 43692.65567		 949.71062			42742.94505		166.22800		875.00000 
 43692.65567		 305.27265			43387.38302		70.72800		324.00000 
 43692.65567		 949.71062			42742.94505		166.22800		875.00000 
 43692.65567		 305.27265			43387.38302		70.72800		324.00000 
 43692.65567		 949.71062			42742.94505		166.22800		875.00000 
 43692.65567		 305.27265			43387.38302		70.72800		324.00000 
 43692.65567		 949.71062			42742.94505		166.22800		875.00000 
 43692.65567		 305.27265			43387.38302		70.72800		324.00000 
 43692.65567		 949.71062			42742.94505		166.22800		875.00000 
 43692.65567		 305.27265			43387.38302		70.72800		324.00000 
 43692.65567		 949.71062			42742.94505		166.22800		875.00000 
 43692.65567		 305.27265			43387.38302		70.72800		324.00000 
 43692.65567		 949.71062			42742.94505		166.22800		875.00000 
 43692.65567		 305.27265			43387.38302		70.72800		324.00000 
 43692.65567		 949.71062			42742.94505		166.22800		875.00000 
 43692.65567		 305.27265			43387.38302		70.72800		324.00000 
 43692.65567		 949.71062			42742.94505		166.22800		875.00000 
 43692.65567		 305.27265			43387.38302		70.72800		324.00000 
 43692.65567		 949.71062			42742.94505		166.22800		875.00000 
 43692.65567		 305.27265			43387.38302		70.72800		324.00000 
 43692.65567		 949.71062			42742.94505		166.22800		875.00000 
 43692.65567		 305.27265			43387.38302		70.72800		324.00000 
 43692.65567		 949.71062			42742.94505		166.22800		875.00000 
 43692.65567		 305.27265			43387.38302		70.72800		324.00000 
 43692.65567		 949.71062			42742.94505		166.22800		875.00000 
 43692.65567		 305.27265			43387.38302		70.72800		324.00000 
 43692.65567		 949.71062			42742.94505		166.22800		875.00000 
 43692.65567		 305.27265			43387.38302		70.72800		324.00000 
 43692.65567		 949.71062			42742.94505		166.22800		875.00000 
 43692.65567		 305.27265			43387.38302		70.72800		324.00000 
 43692.65567		 949.71062			42742.94505		166.22800		875.00000 
 43692.65567		 305.27265			43387.38302		70.72800		324.00000 
 43692.65567		 949.71062			42742.94505		166.22800		875.00000 
 43692.65567		 305.27265			43387.38302		70.72800		324.00000 
 43692.65567		 949.71062			42742.94505		166.22800		875.00000 
 43692.65567		 305.27265			43387.38302		70.72800		324.00000 
 43692.65567		 949.71062			42742.94505		166.22800		875.00000 
 43692.65567		 305.27265			43387.38302		70.72800		324.00000 
 43692.65567		 949.71062			42742.94505		166.22800		875.00000 
 43692.65567		 305.27265			43387.38302		70.72800		324.00000 
 43692.65567		 949.71062			42742.94505		166.22800		875.00000 
 43692.65567		 305.27265			43387.38302		70.72800		324.00000 
 43692.65567		 949.71062			42742.94505		166.22800		875.00000 
 43692.65567		 305.27265			43387.38302		70.72800		324.00000 
 43692.65567		 949.71062			42742.94505		166.22800		875.00000 
 43692.65567		 305.27265			43387.38302		70.72800		324.00000 
 43692.65567		 949.71062			42742.94505		166.22800		875.00000 
 43692.65567		 305.27265			43387.38302		70.72800		324.00000 
 43692.65567		 949.71062			42742.94505		166.22800		875.00000 
 43692.65567		 305.27265			43387.38302		70.72800		324.00000 
 43692.65567		 949.71062			42742.94505		166.22800		875.00000 
 43692.65567		 305.27265			43387.38302		70.72800		324.00000 
 43692.65567		 949.71062			42742.94505		166.22800		875.00000 
 43692.65567		 305.27265			43387.38302		70.72800		324.00000 
 43692.65567		 949.71062			42742.94505		166.22800		875.00000 
 43692.65567		 305.27265			43387.38302		70.72800		324.00000 
 43692.65567		 949.71062			42742.94505		166.22800		875.00000 
 43692.65567		 305.27265			43387.38302		70.72800		324.00000 
 43692.65567		 949.71062			42742.94505		166.22800		875.00000 
 43692.65567		 305.27265			43387.38302		70.72800		324.00000 
 43692.65567		 949.71062			42742.94505		166.22800		875.00000 
 43692.65567		 305.27265			43387.38302		70.72800		324.00000 
 43692.65567		 949.71062			42742.94505		166.22800		875.00000 
 43692.65567		 305.27265			43387.38302		70.72800		324.00000 
 43692.65567		 949.71062			42742.94505		166.22800		875.00000 
 43692.65567		 305.27265			43387.38302		70.72800		324.00000 
 43692.65567		 949.71062			42742.94505		166.22800		875.00000 
 43692.65567		 305.27265			43387.38302		70.72800		324.00000 
 43692.65567		 949.71062			42742.94505		166.22800		875.00000 
 43692.65567		 305.27265			43387.38302		70.72800		324.00000 
 43692.65567		 949.71062			42742.94505		166.22800		875.00000 
 43692.65567		 305.27265			43387.38302		70.72800		324.00000 
 43692.65567		 949.71062			42742.94505		166.22800		875.00000 
 43692.65567		 305.27265			43387.38302		70.72800		324.00000 
 43692.65567		 949.71062			42742.94505		166.22800		875.00000 
 43692.65567		 305.27265			43387.38302		70.72800		324.00000 
 43692.65567		 949.71062			42742.94505		166.22800		875.00000 
 43692.65567		 305.27265			43387.38302		70.72800		324.00000 
 43692.65567		 949.71062			42742.94505		166.22800		875.00000 
 43692.65567		 305.27265			43387.38302		70.72800		324.00000 
 43692.65567		 949.71062			42742.94505		166.22800		875.00000 
 43692.65567		 305.27265			43387.38302		70.72800		324.00000 
 43692.65567		 949.71062			42742.94505		166.22800		875.00000 
 43692.65567		 305.27265			43387.38302		70.72800		324.00000 
 43692.65567		 949.71062			42742.94505		166.22800		875.00000 
 43692.65567		 305.27265			43387.38302		70.72800		324.00000 
 43692.65567		 949.71062			42742.94505		166.22800		875.00000 
 43692.65567		 305.27265			43387.38302		70.72800		324.00000 
 43692.65567		 949.71062			42742.94505		166.22800		875.00000 
 43692.65567		 305.27265			43387.38302		70.72800		324.00000 
 43692.65567		 949.71062			42742.94505		166.22800		875.00000 
 43692.65567		 305.27265			43387.38302		70.72800		324.00000 
 43692.65567		 949.71062			42742.94505		166.22800		875.00000 
 43692.65567		 305.27265			43387.38302		70.72800		324.00000 
 43692.65567		 949.71062			42742.94505		166.22800		875.00000 
 43692.65567		 305.27265			43387.38302		70.72800		324.00000 
 43692.65567		 949.71062			42742.94505		166.22800		875.00000 
 43692.65567		 305.27265			43387.38302		70.72800		324.00000 
 43692.65567		 949.71062			42742.94505		166.22800		875.00000 
 43692.65567		 305.27265			43387.38302		70.72800		324.00000 
 43692.65567		 949.71062			42742.94505		166.22800		875.00000 
 43692.65567		 305.27265			43387.38302		70.72800		324.00000 
 43692.65567		 949.71062			42742.94505		166.22800		875.00000 
 43692.65567		 305.27265			43387.38302		70.72800		324.00000 
 43692.65567		 949.71062			42742.94505		207.22200		875.00000 
 43692.65567		 305.27265			43387.38302		70.72800		324.00000 
 43692.65567		 949.71062			42742.94505		207.22200		875.00000 
 43692.65567		 305.27265			43387.38302		70.72800		324.00000 
 43692.65567		 949.71062			42742.94505		207.22200		875.00000 
 43692.65567		 305.27265			43387.38302		70.72800		324.00000 
 43692.65567		 949.71062			42742.94505		207.22200		875.00000 
 43692.65567		 305.27265			43387.38302		70.72800		324.00000 
 43692.65567		 949.71062			42742.94505		207.22200		875.00000 
 43692.65567		 305.27265			43387.38302		70.72800		324.00000 
 43692.65567		 949.71062			42742.94505		207.22200		875.00000 
 43692.65567		 305.27265			43387.38302		70.72800		324.00000 
 43692.65567		 949.71062			42742.94505		207.22200		875.00000 
 43692.65567		 305.27265			43387.38302		70.72800		324.00000 
 43692.65567		 949.71062			42742.94505		207.22200		875.00000 
 43692.65567		 305.27265			43387.38302		70.72800		324.00000 
 43692.65567		 949.71062			42742.94505		207.22200		875.00000 
 43692.65567		 305.27265			43387.38302		70.72800		324.00000 
 43692.65567		 949.71062			42742.94505		207.22200		875.00000 
 43692.65567		 305.27265			43387.38302		70.72800		324.00000 
 43692.65567		 949.71062			42742.94505		207.22200		875.00000 
 43692.65567		 305.27265			43387.38302		70.72800		324.00000 
 43692.65567		 949.71062			42742.94505		207.22200		875.00000 
 43692.65567		 305.27265			43387.38302		70.72800		324.00000 
 43692.65567		 949.71062			42742.94505		207.22200		875.00000 
 43692.65567		 305.27265			43387.38302		70.72800		324.00000 
 43692.65567		 949.71062			42742.94505		207.22200		875.00000 
 43692.65567		 305.27265			43387.38302		70.72800		324.00000 
 43692.65567		 949.71062			42742.94505		207.22200		875.00000 
 43692.65567		 305.27265			43387.38302		70.72800		324.00000 
 43692.65567		 949.71062			42742.94505		207.22200		875.00000 
 43692.65567		 305.27265			43387.38302		70.72800		324.00000 
 43692.65567		 949.71062			42742.94505		207.22200		875.00000 
 43692.65567		 305.27265			43387.38302		70.72800		324.00000 
 43692.65567		 949.71062			42742.94505		207.22200		875.00000 
 43692.65567		 305.27265			43387.38302		70.72800		324.00000 
 43692.65567		 949.71062			42742.94505		207.22200		875.00000 
 43692.65567		 305.27265			43387.38302		70.72800		324.00000 
 43692.65567		 949.71062			42742.94505		207.22200		875.00000 
 43692.65567		 305.27265			43387.38302		70.72800		324.00000 
 43692.65567		 949.71062			42742.94505		207.22200		875.00000 
 43692.65567		 305.27265			43387.38302		70.72800		324.00000 
 43692.65567		 949.71062			42742.94505		207.22200		875.00000 
 43692.65567		 305.27265			43387.38302		70.72800		324.00000 
 43692.65567		 949.71062			42742.94505		207.22200		875.00000 
 43692.65567		 305.27265			43387.38302		70.72800		324.00000 
 43692.65567		 949.71062			42742.94505		207.22200		875.00000 
 43692.65567		 305.27265			43387.38302		70.72800		324.00000 
 43692.65567		 949.71062			42742.94505		207.22200		875.00000 
 43692.65567		 305.27265			43387.38302		70.72800		324.00000 
 43692.65567		 949.71062			42742.94505		207.22200		875.00000 
 43692.65567		 305.27265			43387.38302		70.72800		324.00000 
 43692.65567		 949.71062			42742.94505		207.22200		875.00000 
 43692.65567		 305.27265			43387.38302		70.72800		324.00000 
 43692.65567		 949.71062			42742.94505		207.22200		875.00000 
 43692.65567		 305.27265			43387.38302		70.72800		324.00000 
 43692.65567		 949.71062			42742.94505		207.22200		875.00000 
 43692.65567		 305.27265			43387.38302		70.72800		324.00000 
 43692.65567		 949.71062			42742.94505		207.22200		875.00000 
 43692.65567		 305.27265			43387.38302		70.72800		324.00000 
 43692.65567		 949.71062			42742.94505		207.22200		875.00000 
 43692.65567		 305.27265			43387.38302		70.72800		324.00000 
 43692.65567		 949.71062			42742.94505		207.22200		875.00000 
 43692.65567		 305.27265			43387.38302		70.72800		324.00000 
 43692.65567		 949.71062			42742.94505		207.22200		875.00000 
 43692.65567		 305.27265			43387.38302		70.72800		324.00000 
 43692.65567		 949.71062			42742.94505		207.22200		875.00000 
 43692.65567		 305.27265			43387.38302		70.72800		324.00000 
 43692.65567		 949.71062			42742.94505		207.22200		875.00000 
 43692.65567		 305.27265			43387.38302		70.72800		324.00000 
 43692.65567		 949.71062			42742.94505		207.22200		875.00000 
 43692.65567		 305.27265			43387.38302		70.72800		324.00000 
 43692.65567		 949.71062			42742.94505		207.22200		875.00000 
 43692.65567		 305.27265			43387.38302		70.72800		324.00000 
 43692.65567		 949.71062			42742.94505		207.22200		875.00000 
 43692.65567		 305.27265			43387.38302		70.72800		324.00000 
 43692.65567		 949.71062			42742.94505		207.22200		875.00000 
 43692.65567		 305.27265			43387.38302		70.72800		324.00000 
 43692.65567		 949.71062			42742.94505		207.22200		875.00000 
 43692.65567		 305.27265			43387.38302		70.72800		324.00000 
 43692.65567		 949.71062			42742.94505		207.22200		875.00000 
 43692.65567		 305.27265			43387.38302		70.72800		324.00000 
 43692.65567		 949.71062			42742.94505		207.22200		875.00000 
 43692.65567		 305.27265			43387.38302		70.72800		324.00000 
 43692.65567		 949.71062			42742.94505		207.22200		875.00000 
 43692.65567		 305.27265			43387.38302		70.72800		324.00000 
 43692.65567		 949.71062			42742.94505		207.22200		875.00000 
 43692.65567		 305.27265			43387.38302		70.72800		324.00000 
 43692.65567		 949.71062			42742.94505		207.22200		875.00000 
 43692.65567		 305.27265			43387.38302		70.72800		324.00000 
 43692.65567		 949.71062			42742.94505		207.22200		875.00000 
 43692.65567		 305.27265			43387.38302		70.72800		324.00000 
 43692.65567		 949.71062			42742.94505		207.22200		875.00000 
 43692.65567		 305.27265			43387.38302		70.72800		324.00000 
 43692.65567		 949.71062			42742.94505		207.22200		875.00000 
 43692.65567		 305.27265			43387.38302		70.72800		324.00000 
 43692.65567		 949.71062			42742.94505		207.22200		875.00000 
 43692.65567		 305.27265			43387.38302		70.72800		324.00000 
 43692.65567		 949.71062			42742.94505		207.22200		875.00000 
 43692.65567		 305.27265			43387.38302		70.72800		324.00000 
 43692.65567		 949.71062			42742.94505		207.22200		875.00000 
 43692.65567		 305.27265			43387.38302		70.72800		324.00000 
 43692.65567		 949.71062			42742.94505		207.22200		875.00000 
 43692.65567		 305.27265			43387.38302		70.72800		324.00000 
 43692.65567		 949.71062			42742.94505		207.22200		875.00000 
 43692.65567		 305.27265			43387.38302		70.72800		324.00000 
 43692.65567		 949.71062			42742.94505		207.22200		875.00000 
 43692.65567		 305.27265			43387.38302		70.72800		324.00000 
 43692.65567		 949.71062			42742.94505		207.22200		875.00000 
 43692.65567		 305.27265			43387.38302		70.72800		324.00000 
 43692.65567		 949.71062			42742.94505		207.22200		875.00000 
 43692.65567		 305.27265			43387.38302		70.72800		324.00000 
 43692.65567		 949.71062			42742.94505		207.22200		875.00000 
 43692.65567		 305.27265			43387.38302		70.72800		324.00000 
 43692.65567		 949.71062			42742.94505		207.22200		875.00000 
 43692.65567		 305.27265			43387.38302		70.72800		324.00000 
 43692.65567		 949.71062			42742.94505		207.22200		875.00000 
 43692.65567		 305.27265			43387.38302		70.72800		324.00000 
 43692.65567		 949.71062			42742.94505		207.22200		875.00000 
 43692.65567		 305.27265			43387.38302		70.72800		324.00000 
 43692.65567		 949.71062			42742.94505		207.22200		875.00000 
 43692.65567		 305.27265			43387.38302		70.72800		324.00000 
 43692.65567		 949.71062			42742.94505		207.22200		875.00000 
 43692.65567		 305.27265			43387.38302		70.72800		324.00000 
 43692.65567		 949.71062			42742.94505		207.22200		875.00000 
 43692.65567		 305.27265			43387.38302		70.72800		324.00000 
 43692.65567		 949.71062			42742.94505		207.22200		875.00000 
 43692.65567		 305.27265			43387.38302		70.72800		324.00000 
 43692.65567		 949.71062			42742.94505		207.22200		875.00000 
 43692.65567		 305.27265			43387.38302		70.72800		324.00000 
 43692.65567		 949.71062			42742.94505		222.59600		875.00000 
 43692.65567		 305.27265			43387.38302		70.72800		324.00000 
 43692.65567		 949.71062			42742.94505		222.59600		875.00000 
 43692.65567		 305.27265			43387.38302		70.72800		324.00000 
 43692.65567		 949.71062			42742.94505		222.59600		875.00000 
 43692.65567		 305.27265			43387.38302		70.72800		324.00000 
 43692.65567		 949.71062			42742.94505		222.59600		875.00000 
 43692.65567		 305.27265			43387.38302		70.72800		324.00000 
 43692.65567		 949.71062			42742.94505		222.59600		875.00000 
 43692.65567		 305.27265			43387.38302		70.72800		324.00000 
 43692.65567		 949.71062			42742.94505		222.59600		875.00000 
 43692.65567		 305.27265			43387.38302		70.72800		324.00000 
 43692.65567		 949.71062			42742.94505		222.59600		875.00000 
 43692.65567		 305.27265			43387.38302		70.72800		324.00000 
 43692.65567		 949.71062			42742.94505		222.59600		875.00000 
 43692.65567		 305.27265			43387.38302		70.72800		324.00000 
 43692.65567		 949.71062			42742.94505		222.59600		875.00000 
 43692.65567		 305.27265			43387.38302		70.72800		324.00000 
 43692.65567		 949.71062			42742.94505		222.59600		875.00000 
 43692.65567		 305.27265			43387.38302		70.72800		324.00000 
 43692.65567		 949.71062			42742.94505		222.59600		875.00000 
 43692.65567		 305.27265			43387.38302		70.72800		324.00000 
 43692.65567		 949.71062			42742.94505		222.59600		875.00000 
 43692.65567		 305.27265			43387.38302		70.72800		324.00000 
 43692.65567		 949.71062			42742.94505		222.59600		875.00000 
 43692.65567		 305.27265			43387.38302		70.72800		324.00000 
 43692.65567		 949.71062			42742.94505		222.59600		875.00000 
 43692.65567		 305.27265			43387.38302		70.72800		324.00000 
 43692.65567		 949.71062			42742.94505		222.59600		875.00000 
 43692.65567		 305.27265			43387.38302		70.72800		324.00000 
 43692.65567		 949.71062			42742.94505		222.59600		875.00000 
 43692.65567		 305.27265			43387.38302		70.72800		324.00000 
 43692.65567		 949.71062			42742.94505		222.59600		875.00000 
 43692.65567		 305.27265			43387.38302		70.72800		324.00000 
 43692.65567		 949.71062			42742.94505		222.59600		875.00000 
 43692.65567		 305.27265			43387.38302		70.72800		324.00000 
 43692.65567		 949.71062			42742.94505		222.59600		875.00000 
 43692.65567		 305.27265			43387.38302		70.72800		324.00000 
 43692.65567		 949.71062			42742.94505		222.59600		875.00000 
 43692.65567		 305.27265			43387.38302		70.72800		324.00000 
 43692.65567		 949.71062			42742.94505		222.59600		875.00000 
 43692.65567		 305.27265			43387.38302		70.72800		324.00000 
 43692.65567		 949.71062			42742.94505		222.59600		875.00000 
 43692.65567		 305.27265			43387.38302		70.72800		324.00000 
 43692.65567		 949.71062			42742.94505		222.59600		875.00000 
 43692.65567		 305.27265			43387.38302		70.72800		324.00000 
 43692.65567		 949.71062			42742.94505		222.59600		875.00000 
 43692.65567		 305.27265			43387.38302		70.72800		324.00000 
 43692.65567		 949.71062			42742.94505		222.59600		875.00000 
 43692.65567		 305.27265			43387.38302		70.72800		324.00000 
 43692.65567		 949.71062			42742.94505		222.59600		875.00000 
 43692.65567		 305.27265			43387.38302		70.72800		324.00000 
 43692.65567		 949.71062			42742.94505		222.59600		875.00000 
 43692.65567		 305.27265			43387.38302		70.72800		324.00000 
 43692.65567		 949.71062			42742.94505		222.59600		875.00000 
 43692.65567		 305.27265			43387.38302		70.72800		324.00000 
 43692.65567		 949.71062			42742.94505		222.59600		875.00000 
 43692.65567		 305.27265			43387.38302		70.72800		324.00000 
 43692.65567		 949.71062			42742.94505		222.59600		875.00000 
 43692.65567		 305.27265			43387.38302		70.72800		324.00000 
 43692.65567		 949.71062			42742.94505		222.59600		875.00000 
 43692.65567		 305.27265			43387.38302		70.72800		324.00000 
 43692.65567		 949.71062			42742.94505		222.59600		875.00000 
 43692.65567		 305.27265			43387.38302		70.72800		324.00000 
 43692.65567		 949.71062			42742.94505		222.59600		875.00000 
 43692.65567		 305.27265			43387.38302		70.72800		324.00000 
 43692.65567		 949.71062			42742.94505		222.59600		875.00000 
 43692.65567		 305.27265			43387.38302		70.72800		324.00000 
 43692.65567		 949.71062			42742.94505		222.59600		875.00000 
 43692.65567		 305.27265			43387.38302		70.72800		324.00000 
 43692.65567		 949.71062			42742.94505		222.59600		875.00000 
 43692.65567		 305.27265			43387.38302		70.72800		324.00000 
 43692.65567		 949.71062			42742.94505		222.59600		875.00000 
 43692.65567		 305.27265			43387.38302		70.72800		324.00000 
 43692.65567		 949.71062			42742.94505		222.59600		875.00000 
 43692.65567		 305.27265			43387.38302		70.72800		324.00000 
 43692.65567		 949.71062			42742.94505		222.59600		875.00000 
 43692.65567		 305.27265			43387.38302		70.72800		324.00000 
 43692.65567		 949.71062			42742.94505		222.59600		875.00000 
 43692.65567		 305.27265			43387.38302		70.72800		324.00000 
 43692.65567		 949.71062			42742.94505		222.59600		875.00000 
 43692.65567		 305.27265			43387.38302		70.72800		324.00000 
 43692.65567		 949.71062			42742.94505		222.59600		875.00000 
 43692.65567		 305.27265			43387.38302		69.64400		324.00000 
 43692.65567		 949.71062			42742.94505		222.59600		875.00000 
 43692.65567		 305.27265			43387.38302		69.64400		324.00000 
 43692.65567		 949.71062			42742.94505		222.59600		875.00000 
 43692.65567		 305.27265			43387.38302		69.64400		324.00000 
 43692.65567		 949.71062			42742.94505		222.59600		875.00000 
 43692.65567		 305.27265			43387.38302		69.64400		324.00000 
 43692.65567		 949.71062			42742.94505		222.59600		875.00000 
 43692.65567		 305.27265			43387.38302		69.64400		324.00000 
 43692.65567		 949.71062			42742.94505		222.59600		875.00000 
 43692.65567		 305.27265			43387.38302		69.64400		324.00000 
 43692.65567		 949.71062			42742.94505		222.59600		875.00000 
 43692.65567		 305.27265			43387.38302		69.64400		324.00000 
 43692.65567		 949.71062			42742.94505		222.59600		875.00000 
 43692.65567		 305.27265			43387.38302		69.64400		324.00000 
 43692.65567		 949.71062			42742.94505		222.59600		875.00000 
 43692.65567		 305.27265			43387.38302		69.64400		324.00000 
 43692.65567		 949.71062			42742.94505		222.59600		875.00000 
 43692.65567		 305.27265			43387.38302		69.64400		324.00000 
 43692.65567		 949.71062			42742.94505		222.59600		875.00000 
 43692.65567		 305.27265			43387.38302		69.64400		324.00000 
 43692.65567		 949.71062			42742.94505		222.59600		875.00000 
 43692.65567		 305.27265			43387.38302		69.64400		324.00000 
 43692.65567		 949.71062			42742.94505		222.59600		875.00000 
 43692.65567		 305.27265			43387.38302		69.64400		324.00000 
 43692.65567		 949.71062			42742.94505		222.59600		875.00000 
 43692.65567		 305.27265			43387.38302		69.64400		324.00000 
 43692.65567		 949.71062			42742.94505		222.59600		875.00000 
 43692.65567		 305.27265			43387.38302		69.64400		324.00000 
 43692.65567		 949.71062			42742.94505		222.59600		875.00000 
 43692.65567		 305.27265			43387.38302		69.64400		324.00000 
 43692.65567		 949.71062			42742.94505		222.59600		875.00000 
 43692.65567		 305.27265			43387.38302		69.64400		324.00000 
 43692.65567		 949.71062			42742.94505		222.59600		875.00000 
 43692.65567		 305.27265			43387.38302		69.64400		324.00000 
 43692.65567		 949.71062			42742.94505		222.59600		875.00000 
 43692.65567		 305.27265			43387.38302		69.64400		324.00000 
 43692.65567		 949.71062			42742.94505		222.59600		875.00000 
 43692.65567		 305.27265			43387.38302		69.64400		324.00000 
 43692.65567		 949.71062			42742.94505		227.26600		875.00000 
 43692.65567		 305.27265			43387.38302		69.64400		324.00000 
 43692.65567		 949.71062			42742.94505		227.26600		875.00000 
 43692.65567		 305.27265			43387.38302		69.64400		324.00000 
 43692.65567		 949.71062			42742.94505		227.26600		875.00000 
 43692.65567		 305.27265			43387.38302		69.64400		324.00000 
 43692.65567		 949.71062			42742.94505		227.26600		875.00000 
 43692.65567		 305.27265			43387.38302		69.64400		324.00000 
 43692.65567		 949.71062			42742.94505		227.26600		875.00000 
 43692.65567		 305.27265			43387.38302		69.64400		324.00000 
 43692.65567		 949.71062			42742.94505		227.26600		875.00000 
 43692.65567		 305.27265			43387.38302		69.64400		324.00000 
 43692.65567		 949.71062			42742.94505		227.26600		875.00000 
 43692.65567		 305.27265			43387.38302		69.64400		324.00000 
 43692.65567		 949.71062			42742.94505		227.26600		875.00000 
 43692.65567		 305.27265			43387.38302		69.64400		324.00000 
 43692.65567		 949.71062			42742.94505		227.26600		875.00000 
 43692.65567		 305.27265			43387.38302		69.64400		324.00000 
 43692.65567		 949.71062			42742.94505		227.26600		875.00000 
 43692.65567		 305.27265			43387.38302		69.64400		324.00000 
 43692.65567		 949.71062			42742.94505		227.26600		875.00000 
 43692.65567		 305.27265			43387.38302		69.64400		324.00000 
 43692.65567		 949.71062			42742.94505		227.26600		875.00000 
 43692.65567		 305.27265			43387.38302		69.64400		324.00000 
 43692.65567		 949.71062			42742.94505		227.26600		875.00000 
 43692.65567		 305.27265			43387.38302		69.64400		324.00000 
 43692.65567		 949.71062			42742.94505		227.26600		875.00000 
 43692.65567		 305.27265			43387.38302		69.64400		324.00000 
 43692.65567		 949.71062			42742.94505		227.26600		875.00000 
 43692.65567		 305.27265			43387.38302		69.64400		324.00000 
 43692.65567		 949.71062			42742.94505		227.26600		875.00000 
 43692.65567		 305.27265			43387.38302		69.64400		324.00000 
 43692.65567		 949.71062			42742.94505		227.26600		875.00000 
 43692.65567		 305.27265			43387.38302		69.64400		324.00000 
 43692.65567		 949.71062			42742.94505		227.26600		875.00000 
 43692.65567		 305.27265			43387.38302		69.64400		324.00000 
 43692.65567		 949.71062			42742.94505		227.26600		875.00000 
 43692.65567		 305.27265			43387.38302		69.64400		324.00000 
 43692.65567		 949.71062			42742.94505		227.26600		875.00000 
 43692.65567		 305.27265			43387.38302		69.64400		324.00000 
 43692.65567		 949.71062			42742.94505		227.26600		875.00000 
 43692.65567		 305.27265			43387.38302		69.64400		324.00000 
 43692.65567		 949.71062			42742.94505		227.26600		875.00000 
 43692.65567		 305.27265			43387.38302		69.64400		324.00000 
 43692.65567		 949.71062			42742.94505		227.26600		875.00000 
 43692.65567		 305.27265			43387.38302		69.64400		324.00000 
 43692.65567		 949.71062			42742.94505		227.26600		875.00000 
 43692.65567		 305.27265			43387.38302		69.64400		324.00000 
 43692.65567		 949.71062			42742.94505		227.26600		875.00000 
 43692.65567		 305.27265			43387.38302		69.64400		324.00000 
 43692.65567		 949.71062			42742.94505		227.26600		875.00000 
 43692.65567		 305.27265			43387.38302		69.64400		324.00000 
 43692.65567		 949.71062			42742.94505		227.26600		875.00000 
 43692.65567		 305.27265			43387.38302		69.64400		324.00000 
 43692.65567		 949.71062			42742.94505		227.26600		875.00000 
 43692.65567		 305.27265			43387.38302		69.64400		324.00000 
 43692.65567		 949.71062			42742.94505		227.26600		875.00000 
 43692.65567		 305.27265			43387.38302		69.64400		324.00000 
 43692.65567		 949.71062			42742.94505		227.26600		875.00000 
 43692.65567		 305.27265			43387.38302		69.64400		324.00000 
 43692.65567		 949.71062			42742.94505		227.26600		875.00000 
 43692.65567		 305.27265			43387.38302		69.64400		324.00000 
 43692.65567		 949.71062			42742.94505		227.26600		875.00000 
 43692.65567		 305.27265			43387.38302		69.64400		324.00000 
 43692.65567		 949.71062			42742.94505		227.26600		875.00000 
 43692.65567		 305.27265			43387.38302		69.64400		324.00000 
 43692.65567		 949.71062			42742.94505		227.26600		875.00000 
 43692.65567		 305.27265			43387.38302		69.64400		324.00000 
 43692.65567		 949.71062			42742.94505		227.26600		875.00000 
 43692.65567		 305.27265			43387.38302		69.64400		324.00000 
 43692.65567		 949.71062			42742.94505		227.26600		875.00000 
 43692.65567		 305.27265			43387.38302		69.64400		324.00000 
 43692.65567		 949.71062			42742.94505		227.26600		875.00000 
 43692.65567		 305.27265			43387.38302		69.64400		324.00000 
 43692.65567		 949.71062			42742.94505		227.26600		875.00000 
 43692.65567		 305.27265			43387.38302		69.64400		324.00000 
 43692.65567		 949.71062			42742.94505		227.26600		875.00000 
 43692.65567		 305.27265			43387.38302		69.64400		324.00000 
 43692.65567		 949.71062			42742.94505		227.26600		875.00000 
 43692.65567		 305.27265			43387.38302		69.64400		324.00000 
 43692.65567		 949.71062			42742.94505		227.26600		875.00000 
 43692.65567		 305.27265			43387.38302		69.64400		324.00000 
 43692.65567		 949.71062			42742.94505		227.26600		875.00000 
 43692.65567		 305.27265			43387.38302		69.64400		324.00000 
 43692.65567		 949.71062			42742.94505		227.26600		875.00000 
 43692.65567		 305.27265			43387.38302		69.64400		324.00000 
 43692.65567		 949.71062			42742.94505		227.26600		875.00000 
 43692.65567		 305.27265			43387.38302		69.64400		324.00000 
 43692.65567		 949.71062			42742.94505		227.26600		875.00000 
 43692.65567		 305.27265			43387.38302		69.64400		324.00000 
 43692.65567		 949.71062			42742.94505		227.26600		875.00000 
 43692.65567		 305.27265			43387.38302		69.64400		324.00000 
 43692.65567		 949.71062			42742.94505		227.26600		875.00000 
 43692.65567		 305.27265			43387.38302		69.64400		324.00000 
 43692.65567		 949.71062			42742.94505		227.26600		875.00000 
 43692.65567		 305.27265			43387.38302		69.64400		324.00000 
 43692.65567		 949.71062			42742.94505		227.26600		875.00000 
 43692.65567		 305.27265			43387.38302		69.64400		324.00000 
 43692.65567		 949.71062			42742.94505		227.26600		875.00000 
 43692.65567		 305.27265			43387.38302		69.64400		324.00000 
 43692.65567		 949.71062			42742.94505		227.26600		875.00000 
 43692.65567		 305.27265			43387.38302		69.64400		324.00000 
 43692.65567		 949.71062			42742.94505		227.26600		875.00000 
 43692.65567		 305.27265			43387.38302		69.64400		324.00000 
 43692.65567		 949.71062			42742.94505		227.26600		875.00000 
 43692.65567		 305.27265			43387.38302		69.64400		324.00000 
 43692.65567		 949.71062			42742.94505		227.26600		875.00000 
 43692.65567		 305.27265			43387.38302		69.64400		324.00000 
 43692.65567		 949.71062			42742.94505		227.26600		875.00000 
 43692.65567		 305.27265			43387.38302		69.64400		324.00000 
 43692.65567		 949.71062			42742.94505		227.26600		875.00000 
 43692.65567		 305.27265			43387.38302		69.64400		324.00000 
 43692.65567		 949.71062			42742.94505		227.26600		875.00000 
 43692.65567		 305.27265			43387.38302		69.64400		324.00000 
 43692.65567		 949.71062			42742.94505		227.26600		875.00000 
 43692.65567		 305.27265			43387.38302		69.64400		324.00000 
 43692.65567		 949.71062			42742.94505		227.26600		875.00000 
 43692.65567		 305.27265			43387.38302		69.64400		324.00000 
 43692.65567		 949.71062			42742.94505		227.26600		875.00000 
 43692.65567		 305.27265			43387.38302		69.64400		324.00000 
 43692.65567		 949.71062			42742.94505		227.26600		875.00000 
 43692.65567		 305.27265			43387.38302		69.64400		324.00000 
 43692.65567		 949.71062			42742.94505		227.26600		875.00000 
 43692.65567		 305.27265			43387.38302		69.64400		324.00000 
 43692.65567		 949.71062			42742.94505		227.26600		875.00000 
 43692.65567		 305.27265			43387.38302		69.64400		324.00000 
 43692.65567		 949.71062			42742.94505		227.26600		875.00000 
 43692.65567		 305.27265			43387.38302		69.64400		324.00000 
 43692.65567		 949.71062			42742.94505		229.64200		875.00000 
 43692.65567		 305.27265			43387.38302		69.64400		324.00000 
 43692.65567		 949.71062			42742.94505		229.64200		875.00000 
 43692.65567		 305.27265			43387.38302		69.64400		324.00000 
 43692.65567		 949.71062			42742.94505		229.64200		875.00000 
 43692.65567		 305.27265			43387.38302		69.64400		324.00000 
 43692.65567		 949.71062			42742.94505		229.64200		875.00000 
 43692.65567		 305.27265			43387.38302		69.64400		324.00000 
 43692.65567		 949.71062			42742.94505		229.64200		875.00000 
 43692.65567		 305.27265			43387.38302		69.64400		324.00000 
 43692.65567		 949.71062			42742.94505		229.64200		875.00000 
 43692.65567		 305.27265			43387.38302		69.64400		324.00000 
 43692.65567		 949.71062			42742.94505		229.64200		875.00000 
 43692.65567		 305.27265			43387.38302		69.64400		324.00000 
 43692.65567		 949.71062			42742.94505		229.64200		875.00000 
 43692.65567		 305.27265			43387.38302		69.64400		324.00000 
 43692.65567		 949.71062			42742.94505		229.64200		875.00000 
 43692.65567		 305.27265			43387.38302		69.64400		324.00000 
 43692.65567		 949.71062			42742.94505		229.64200		875.00000 
 43692.65567		 305.27265			43387.38302		69.64400		324.00000 
 43692.65567		 949.71062			42742.94505		229.64200		875.00000 
 43692.65567		 305.27265			43387.38302		69.64400		324.00000 
 43692.65567		 949.71062			42742.94505		229.64200		875.00000 
 43692.65567		 305.27265			43387.38302		69.64400		324.00000 
 43692.65567		 949.71062			42742.94505		229.64200		875.00000 
 43692.65567		 305.27265			43387.38302		69.64400		324.00000 
 43692.65567		 949.71062			42742.94505		229.64200		875.00000 
 43692.65567		 305.27265			43387.38302		69.64400		324.00000 
 43692.65567		 949.71062			42742.94505		229.64200		875.00000 
 43692.65567		 305.27265			43387.38302		69.64400		324.00000 
 43692.65567		 949.71062			42742.94505		229.64200		875.00000 
 43692.65567		 305.27265			43387.38302		69.64400		324.00000 
 43692.65567		 949.71062			42742.94505		229.64200		875.00000 
 43692.65567		 305.27265			43387.38302		69.64400		324.00000 
 43692.65567		 949.71062			42742.94505		229.64200		875.00000 
 43692.65567		 305.27265			43387.38302		69.64400		324.00000 
 43692.65567		 949.71062			42742.94505		229.64200		875.00000 
 43692.65567		 305.27265			43387.38302		69.64400		324.00000 
 43692.65567		 949.71062			42742.94505		229.64200		875.00000 
 43692.65567		 305.27265			43387.38302		69.64400		324.00000 
 43692.65567		 949.71062			42742.94505		229.64200		875.00000 
 43692.65567		 305.27265			43387.38302		69.64400		324.00000 
 43692.65567		 949.71062			42742.94505		229.64200		875.00000 
 43692.65567		 305.27265			43387.38302		69.64400		324.00000 
 43692.65567		 949.71062			42742.94505		229.64200		875.00000 
 43692.65567		 305.27265			43387.38302		69.64400		324.00000 
 43692.65567		 949.71062			42742.94505		229.64200		875.00000 
 43692.65567		 305.27265			43387.38302		69.64400		324.00000 
 43692.65567		 949.71062			42742.94505		229.64200		875.00000 
 43692.65567		 305.27265			43387.38302		69.64400		324.00000 
 43692.65567		 949.71062			42742.94505		229.64200		875.00000 
 43692.65567		 305.27265			43387.38302		69.64400		324.00000 
 43692.65567		 949.71062			42742.94505		229.64200		875.00000 
 43692.65567		 305.27265			43387.38302		69.64400		324.00000 
 43692.65567		 949.71062			42742.94505		229.64200		875.00000 
 43692.65567		 305.27265			43387.38302		69.64400		324.00000 
 43692.65567		 949.71062			42742.94505		229.64200		875.00000 
 43692.65567		 305.27265			43387.38302		69.64400		324.00000 
 43692.65567		 949.71062			42742.94505		229.64200		875.00000 
 43692.65567		 305.27265			43387.38302		69.64400		324.00000 
 43692.65567		 949.71062			42742.94505		229.64200		875.00000 
 43692.65567		 305.27265			43387.38302		69.64400		324.00000 
 43692.65567		 949.71062			42742.94505		229.64200		875.00000 
 43692.65567		 305.27265			43387.38302		69.64400		324.00000 
 43692.65567		 949.71062			42742.94505		229.64200		875.00000 
 43692.65567		 305.27265			43387.38302		69.64400		324.00000 
 43692.65567		 949.71062			42742.94505		229.64200		875.00000 
 43692.65567		 305.27265			43387.38302		69.64400		324.00000 
 43692.65567		 949.71062			42742.94505		229.64200		875.00000 
 43692.65567		 305.27265			43387.38302		69.64400		324.00000 
 43692.65567		 949.71062			42742.94505		229.64200		875.00000 
 43692.65567		 305.27265			43387.38302		69.64400		324.00000 
 43692.65567		 949.71062			42742.94505		229.64200		875.00000 
 43692.65567		 305.27265			43387.38302		69.64400		324.00000 
 43692.65567		 949.71062			42742.94505		229.64200		875.00000 
 43692.65567		 305.27265			43387.38302		69.64400		324.00000 
 43692.65567		 949.71062			42742.94505		229.64200		875.00000 
 43692.65567		 305.27265			43387.38302		69.64400		324.00000 
 43692.65567		 949.71062			42742.94505		229.64200		875.00000 
 43692.65567		 305.27265			43387.38302		69.64400		324.00000 
 43692.65567		 949.71062			42742.94505		229.64200		875.00000 
 43692.65567		 305.27265			43387.38302		69.64400		324.00000 
 43692.65567		 949.71062			42742.94505		229.64200		875.00000 
 43692.65567		 305.27265			43387.38302		69.64400		324.00000 
 43692.65567		 949.71062			42742.94505		229.64200		875.00000 
 43692.65567		 305.27265			43387.38302		69.64400		324.00000 
 43692.65567		 949.71062			42742.94505		229.64200		875.00000 
 43692.65567		 305.27265			43387.38302		69.64400		324.00000 
 43692.65567		 949.71062			42742.94505		229.64200		875.00000 
 43692.65567		 305.27265			43387.38302		69.64400		324.00000 
 43692.65567		 949.71062			42742.94505		229.64200		875.00000 
 43692.65567		 305.27265			43387.38302		69.64400		324.00000 
 43692.65567		 949.71062			42742.94505		229.64200		875.00000 
 43692.65567		 305.27265			43387.38302		69.64400		324.00000 
 43692.65567		 949.71062			42742.94505		229.64200		875.00000 
 43692.65567		 305.27265			43387.38302		69.64400		324.00000 
 43692.65567		 949.71062			42742.94505		229.64200		875.00000 
 43692.65567		 305.27265			43387.38302		69.64400		324.00000 
 43692.65567		 949.71062			42742.94505		229.64200		875.00000 
 43692.65567		 305.27265			43387.38302		69.64400		324.00000 
 43692.65567		 949.71062			42742.94505		229.64200		875.00000 
 43692.65567		 305.27265			43387.38302		69.64400		324.00000 
 43692.65567		 949.71062			42742.94505		229.64200		875.00000 
 43692.65567		 305.27265			43387.38302		69.64400		324.00000 
 43692.65567		 949.71062			42742.94505		229.64200		875.00000 
 43692.65567		 305.27265			43387.38302		69.64400		324.00000 
 43692.65567		 949.71062			42742.94505		229.64200		875.00000 
 43692.65567		 305.27265			43387.38302		69.64400		324.00000 
 43692.65567		 949.71062			42742.94505		229.64200		875.00000 
 43692.65567		 305.27265			43387.38302		69.64400		324.00000 
 43692.65567		 949.71062			42742.94505		229.64200		875.00000 
 43692.65567		 305.27265			43387.38302		69.64400		324.00000 
 43692.65567		 949.71062			42742.94505		229.64200		875.00000 
 43692.65567		 305.27265			43387.38302		69.64400		324.00000 
 43692.65567		 949.71062			42742.94505		229.64200		875.00000 
 43692.65567		 305.27265			43387.38302		69.64400		324.00000 
 43692.65567		 949.71062			42742.94505		229.64200		875.00000 
 43692.65567		 305.27265			43387.38302		69.64400		324.00000 
 43692.65567		 949.71062			42742.94505		229.64200		875.00000 
 43692.65567		 305.27265			43387.38302		69.64400		324.00000 
 43692.65567		 949.71062			42742.94505		229.64200		875.00000 
 43692.65567		 305.27265			43387.38302		69.64400		324.00000 
 43692.65567		 949.71062			42742.94505		229.64200		875.00000 
 43692.65567		 305.27265			43387.38302		69.64400		324.00000 
 43692.65567		 949.71062			42742.94505		229.64200		875.00000 
 43692.65567		 305.27265			43387.38302		69.64400		324.00000 
 43692.65567		 949.71062			42742.94505		229.64200		875.00000 
 43692.65567		 305.27265			43387.38302		69.64400		324.00000 
 43692.65567		 949.71062			42742.94505		229.64200		875.00000 
 43692.65567		 305.27265			43387.38302		69.64400		324.00000 
 43692.65567		 949.71062			42742.94505		229.89800		875.00000 
 43692.65567		 305.27265			43387.38302		69.64400		324.00000 
 43692.65567		 949.71062			42742.94505		229.89800		875.00000 
 43692.65567		 305.27265			43387.38302		69.64400		324.00000 
 43692.65567		 949.71062			42742.94505		229.89800		875.00000 
 43692.65567		 305.27265			43387.38302		69.64400		324.00000 
 43692.65567		 949.71062			42742.94505		229.89800		875.00000 
 43692.65567		 305.27265			43387.38302		69.64400		324.00000 
 43692.65567		 949.71062			42742.94505		229.89800		875.00000 
 43692.65567		 305.27265			43387.38302		69.64400		324.00000 
 43692.65567		 949.71062			42742.94505		229.89800		875.00000 
 43692.65567		 305.27265			43387.38302		69.64400		324.00000 
 43692.65567		 949.71062			42742.94505		229.89800		875.00000 
 43692.65567		 305.27265			43387.38302		69.64400		324.00000 
 43692.65567		 949.71062			42742.94505		229.89800		875.00000 
 43692.65567		 305.27265			43387.38302		69.64400		324.00000 
 43692.65567		 949.71062			42742.94505		229.89800		875.00000 
 43692.65567		 305.27265			43387.38302		69.64400		324.00000 
 43692.65567		 949.71062			42742.94505		229.89800		875.00000 
 43692.65567		 305.27265			43387.38302		69.64400		324.00000 
 43692.65567		 949.71062			42742.94505		229.89800		875.00000 
 43692.65567		 305.27265			43387.38302		69.64400		324.00000 
 43692.65567		 949.71062			42742.94505		229.89800		875.00000 
 43692.65567		 305.27265			43387.38302		69.64400		324.00000 
 43692.65567		 949.71062			42742.94505		229.89800		875.00000 
 43692.65567		 305.27265			43387.38302		69.64400		324.00000 
 43692.65567		 949.71062			42742.94505		229.89800		875.00000 
 43692.65567		 305.27265			43387.38302		69.64400		324.00000 
 43692.65567		 949.71062			42742.94505		229.89800		875.00000 
 43692.65567		 305.27265			43387.38302		69.64400		324.00000 
 43692.65567		 949.71062			42742.94505		229.89800		875.00000 
 43692.65567		 305.27265			43387.38302		69.64400		324.00000 
 43692.65567		 949.71062			42742.94505		229.89800		875.00000 
 43692.65567		 305.27265			43387.38302		69.64400		324.00000 
 43692.65567		 949.71062			42742.94505		229.89800		875.00000 
 43692.65567		 305.27265			43387.38302		69.64400		324.00000 
 43692.65567		 949.71062			42742.94505		229.89800		875.00000 
 43692.65567		 305.27265			43387.38302		69.64400		324.00000 
 43692.65567		 949.71062			42742.94505		229.89800		875.00000 
 43692.65567		 305.27265			43387.38302		69.64400		324.00000 
 43692.65567		 949.71062			42742.94505		229.89800		875.00000 
 43692.65567		 305.27265			43387.38302		69.64400		324.00000 
 43692.65567		 949.71062			42742.94505		229.89800		875.00000 
 43692.65567		 305.27265			43387.38302		69.64400		324.00000 
 43692.65567		 949.71062			42742.94505		229.89800		875.00000 
 43692.65567		 305.27265			43387.38302		69.64400		324.00000 
 43692.65567		 949.71062			42742.94505		229.89800		875.00000 
 43692.65567		 305.27265			43387.38302		69.64400		324.00000 
 43692.65567		 949.71062			42742.94505		229.89800		875.00000 
 43692.65567		 305.27265			43387.38302		69.64400		324.00000 
 43692.65567		 949.71062			42742.94505		229.89800		875.00000 
 43692.65567		 305.27265			43387.38302		69.64400		324.00000 
 43692.65567		 949.71062			42742.94505		229.89800		875.00000 
 43692.65567		 305.27265			43387.38302		69.64400		324.00000 
 43692.65567		 949.71062			42742.94505		229.89800		875.00000 
 43692.65567		 305.27265			43387.38302		69.64400		324.00000 
 43692.65567		 949.71062			42742.94505		229.89800		875.00000 
 43692.65567		 305.27265			43387.38302		69.64400		324.00000 
 43692.65567		 949.71062			42742.94505		229.89800		875.00000 
 43692.65567		 305.27265			43387.38302		69.64400		324.00000 
 43692.65567		 949.71062			42742.94505		229.89800		875.00000 
 43692.65567		 305.27265			43387.38302		69.64400		324.00000 
 43692.65567		 949.71062			42742.94505		229.89800		875.00000 
 43692.65567		 305.27265			43387.38302		69.64400		324.00000 
 43692.65567		 949.71062			42742.94505		229.89800		875.00000 
 43692.65567		 305.27265			43387.38302		69.64400		324.00000 
 43692.65567		 949.71062			42742.94505		229.89800		875.00000 
 43692.65567		 305.27265			43387.38302		69.64400		324.00000 
 43692.65567		 949.71062			42742.94505		229.89800		875.00000 
 43692.65567		 305.27265			43387.38302		69.64400		324.00000 
 43692.65567		 949.71062			42742.94505		229.89800		875.00000 
 43692.65567		 305.27265			43387.38302		69.64400		324.00000 
 43692.65567		 949.71062			42742.94505		229.89800		875.00000 
 43692.65567		 305.27265			43387.38302		69.64400		324.00000 
 43692.65567		 949.71062			42742.94505		229.89800		875.00000 
 43692.65567		 305.27265			43387.38302		69.64400		324.00000 
 43692.65567		 949.71062			42742.94505		229.89800		875.00000 
 43692.65567		 305.27265			43387.38302		69.64400		324.00000 
 43692.65567		 949.71062			42742.94505		229.89800		875.00000 
 43692.65567		 305.27265			43387.38302		69.64400		324.00000 
 43692.65567		 949.71062			42742.94505		229.89800		875.00000 
 43692.65567		 305.27265			43387.38302		69.64400		324.00000 
 43692.65567		 949.71062			42742.94505		229.89800		875.00000 
 43692.65567		 305.27265			43387.38302		69.64400		324.00000 
 43692.65567		 949.71062			42742.94505		229.89800		875.00000 
 43692.65567		 305.27265			43387.38302		69.64400		324.00000 
 43692.65567		 949.71062			42742.94505		229.89800		875.00000 
 43692.65567		 305.27265			43387.38302		69.64400		324.00000 
 43692.65567		 949.71062			42742.94505		229.89800		875.00000 
 43692.65567		 305.27265			43387.38302		69.64400		324.00000 
 43692.65567		 949.71062			42742.94505		229.89800		875.00000 
 43692.65567		 305.27265			43387.38302		69.64400		324.00000 
 43692.65567		 949.71062			42742.94505		229.89800		875.00000 
 43692.65567		 305.27265			43387.38302		69.64400		324.00000 
 43692.65567		 949.71062			42742.94505		229.89800		875.00000 
 43692.65567		 305.27265			43387.38302		69.64400		324.00000 
 43692.65567		 949.71062			42742.94505		229.89800		875.00000 
 43692.65567		 305.27265			43387.38302		69.64400		324.00000 
 43692.65567		 949.71062			42742.94505		229.89800		875.00000 
 43692.65567		 305.27265			43387.38302		69.64400		324.00000 
 43692.65567		 949.71062			42742.94505		229.89800		875.00000 
 43692.65567		 305.27265			43387.38302		69.64400		324.00000 
 43692.65567		 949.71062			42742.94505		229.89800		875.00000 
 43692.65567		 305.27265			43387.38302		69.64400		324.00000 
 43692.65567		 949.71062			42742.94505		229.89800		875.00000 
 43692.65567		 305.27265			43387.38302		69.64400		324.00000 
 43692.65567		 949.71062			42742.94505		229.89800		875.00000 
 43692.65567		 305.27265			43387.38302		69.64400		324.00000 
 43692.65567		 949.71062			42742.94505		229.89800		875.00000 
 43692.65567		 305.27265			43387.38302		69.64400		324.00000 
 43692.65567		 949.71062			42742.94505		229.89800		875.00000 
 43692.65567		 305.27265			43387.38302		69.64400		324.00000 
 43692.65567		 949.71062			42742.94505		229.89800		875.00000 
 43692.65567		 305.27265			43387.38302		69.64400		324.00000 
 43692.65567		 949.71062			42742.94505		229.89800		875.00000 
 43692.65567		 305.27265			43387.38302		69.64400		324.00000 
 43692.65567		 949.71062			42742.94505		229.89800		875.00000 
 43692.65567		 305.27265			43387.38302		69.64400		324.00000 
 43692.65567		 949.71062			42742.94505		229.89800		875.00000 
 43692.65567		 305.27265			43387.38302		69.64400		324.00000 
 43692.65567		 949.71062			42742.94505		229.89800		875.00000 
 43692.65567		 305.27265			43387.38302		69.64400		324.00000 
 43692.65567		 949.71062			42742.94505		229.89800		875.00000 
 43692.65567		 305.27265			43387.38302		69.64400		324.00000 
 43692.65567		 949.71062			42742.94505		229.89800		875.00000 
 43692.65567		 305.27265			43387.38302		69.64400		324.00000 
 43692.65567		 949.71062			42742.94505		229.89800		875.00000 
 43692.65567		 305.27265			43387.38302		69.64400		324.00000 
 43692.65567		 949.71062			42742.94505		230.14400		875.00000 
 43692.65567		 305.27265			43387.38302		69.64400		324.00000 
 43692.65567		 949.71062			42742.94505		230.14400		875.00000 
 43692.65567		 305.27265			43387.38302		69.64400		324.00000 
 43692.65567		 949.71062			42742.94505		230.14400		875.00000 
 43692.65567		 305.27265			43387.38302		69.64400		324.00000 
 43692.65567		 949.71062			42742.94505		230.14400		875.00000 
 43692.65567		 305.27265			43387.38302		69.64400		324.00000 
 43692.65567		 949.71062			42742.94505		230.14400		875.00000 
 43692.65567		 305.27265			43387.38302		69.64400		324.00000 
 43692.65567		 949.71062			42742.94505		230.14400		875.00000 
 43692.65567		 305.27265			43387.38302		69.64400		324.00000 
 43692.65567		 949.71062			42742.94505		230.14400		875.00000 
 43692.65567		 305.27265			43387.38302		69.64400		324.00000 
 43692.65567		 949.71062			42742.94505		230.14400		875.00000 
 43692.65567		 305.27265			43387.38302		69.64400		324.00000 
 43692.65567		 949.71062			42742.94505		230.14400		875.00000 
 43692.65567		 305.27265			43387.38302		69.64400		324.00000 
 43692.65567		 949.71062			42742.94505		230.14400		875.00000 
 43692.65567		 305.27265			43387.38302		69.64400		324.00000 
 43692.65567		 949.71062			42742.94505		230.14400		875.00000 
 43692.65567		 305.27265			43387.38302		69.64400		324.00000 
 43692.65567		 949.71062			42742.94505		230.14400		875.00000 
 43692.65567		 305.27265			43387.38302		69.64400		324.00000 
 43692.65567		 949.71062			42742.94505		230.14400		875.00000 
 43692.65567		 305.27265			43387.38302		69.64400		324.00000 
 43692.65567		 949.71062			42742.94505		230.14400		875.00000 
 43692.65567		 305.27265			43387.38302		69.64400		324.00000 
 43692.65567		 949.71062			42742.94505		230.14400		875.00000 
 43692.65567		 305.27265			43387.38302		69.64400		324.00000 
 43692.65567		 949.71062			42742.94505		230.14400		875.00000 
 43692.65567		 305.27265			43387.38302		69.64400		324.00000 
 43692.65567		 949.71062			42742.94505		230.14400		875.00000 
 43692.65567		 305.27265			43387.38302		69.64400		324.00000 
 43692.65567		 949.71062			42742.94505		230.14400		875.00000 
 43692.65567		 305.27265			43387.38302		69.64400		324.00000 
 43692.65567		 949.71062			42742.94505		230.14400		875.00000 
 43692.65567		 305.27265			43387.38302		69.64400		324.00000 
 43692.65567		 949.71062			42742.94505		230.14400		875.00000 
 43692.65567		 305.27265			43387.38302		69.64400		324.00000 
 43692.65567		 949.71062			42742.94505		230.14400		875.00000 
 43692.65567		 305.27265			43387.38302		69.64400		324.00000 
 43692.65567		 949.71062			42742.94505		230.14400		875.00000 
 43692.65567		 305.27265			43387.38302		69.64400		324.00000 
 43692.65567		 949.71062			42742.94505		230.14400		875.00000 
 43692.65567		 305.27265			43387.38302		69.64400		324.00000 
 43692.65567		 949.71062			42742.94505		230.14400		875.00000 
 43692.65567		 305.27265			43387.38302		69.64400		324.00000 
 43692.65567		 949.71062			42742.94505		230.14400		875.00000 
 43692.65567		 305.27265			43387.38302		69.64400		324.00000 
 43692.65567		 949.71062			42742.94505		230.14400		875.00000 
 43692.65567		 305.27265			43387.38302		69.64400		324.00000 
 43692.65567		 949.71062			42742.94505		230.14400		875.00000 
 43692.65567		 305.27265			43387.38302		69.64400		324.00000 
 43692.65567		 949.71062			42742.94505		230.14400		875.00000 
 43692.65567		 305.27265			43387.38302		69.64400		324.00000 
 43692.65567		 949.71062			42742.94505		230.14400		875.00000 
 43692.65567		 305.27265			43387.38302		69.64400		324.00000 
 43692.65567		 949.71062			42742.94505		230.14400		875.00000 
 43692.65567		 305.27265			43387.38302		69.64400		324.00000 
 43692.65567		 949.71062			42742.94505		230.14400		875.00000 
 43692.65567		 305.27265			43387.38302		69.64400		324.00000 
 43692.65567		 949.71062			42742.94505		230.14400		875.00000 
 43692.65567		 305.27265			43387.38302		69.64400		324.00000 
 43692.65567		 949.71062			42742.94505		230.14400		875.00000 
 43692.65567		 305.27265			43387.38302		69.64400		324.00000 
 43692.65567		 949.71062			42742.94505		230.14400		875.00000 
 43692.65567		 305.27265			43387.38302		69.64400		324.00000 
 43692.65567		 949.71062			42742.94505		230.14400		875.00000 
 43692.65567		 305.27265			43387.38302		69.64400		324.00000 
 43692.65567		 949.71062			42742.94505		230.14400		875.00000 
 43692.65567		 305.27265			43387.38302		69.64400		324.00000 
 43692.65567		 949.71062			42742.94505		230.14400		875.00000 
 43692.65567		 305.27265			43387.38302		69.64400		324.00000 
 43692.65567		 949.71062			42742.94505		230.14400		875.00000 
 43692.65567		 305.27265			43387.38302		69.64400		324.00000 
 43692.65567		 949.71062			42742.94505		230.14400		875.00000 
 43692.65567		 305.27265			43387.38302		69.64400		324.00000 
 43692.65567		 949.71062			42742.94505		230.14400		875.00000 
 43692.65567		 305.27265			43387.38302		69.64400		324.00000 
 43692.65567		 949.71062			42742.94505		230.14400		875.00000 
 43692.65567		 305.27265			43387.38302		69.64400		324.00000 
 43692.65567		 949.71062			42742.94505		230.14400		875.00000 
 43692.65567		 305.27265			43387.38302		69.64400		324.00000 
 43692.65567		 949.71062			42742.94505		230.14400		875.00000 
 43692.65567		 305.27265			43387.38302		69.64400		324.00000 
 43692.65567		 949.71062			42742.94505		230.14400		875.00000 
 43692.65567		 305.27265			43387.38302		69.64400		324.00000 
 43692.65567		 949.71062			42742.94505		230.14400		875.00000 
 43692.65567		 305.27265			43387.38302		69.64400		324.00000 
 43692.65567		 949.71062			42742.94505		230.14400		875.00000 
 43692.65567		 305.27265			43387.38302		69.64400		324.00000 
 43692.65567		 949.71062			42742.94505		230.14400		875.00000 
 43692.65567		 305.27265			43387.38302		69.64400		324.00000 
 43692.65567		 949.71062			42742.94505		230.14400		875.00000 
 43692.65567		 305.27265			43387.38302		69.64400		324.00000 
 43692.65567		 949.71062			42742.94505		230.14400		875.00000 
 43692.65567		 305.27265			43387.38302		69.64400		324.00000 
 43692.65567		 949.71062			42742.94505		230.14400		875.00000 
 43692.65567		 305.27265			43387.38302		69.64400		324.00000 
 43692.65567		 949.71062			42742.94505		230.14400		875.00000 
 43692.65567		 305.27265			43387.38302		69.64400		324.00000 
 43692.65567		 949.71062			42742.94505		230.14400		875.00000 
 43692.65567		 305.27265			43387.38302		69.64400		324.00000 
 43692.65567		 949.71062			42742.94505		230.14400		875.00000 
 43692.65567		 305.27265			43387.38302		69.64400		324.00000 
 43692.65567		 949.71062			42742.94505		230.14400		875.00000 
 43692.65567		 305.27265			43387.38302		69.64400		324.00000 
 43692.65567		 949.71062			42742.94505		230.14400		875.00000 
 43692.65567		 305.27265			43387.38302		69.64400		324.00000 
 43692.65567		 949.71062			42742.94505		230.14400		875.00000 
 43692.65567		 305.27265			43387.38302		69.64400		324.00000 
 43692.65567		 949.71062			42742.94505		230.14400		875.00000 
 43692.65567		 305.27265			43387.38302		69.64400		324.00000 
 43692.65567		 949.71062			42742.94505		230.14400		875.00000 
 43692.65567		 305.27265			43387.38302		69.64400		324.00000 
 43692.65567		 949.71062			42742.94505		230.14400		875.00000 
 43692.65567		 305.27265			43387.38302		69.64400		324.00000 
 43692.65567		 949.71062			42742.94505		230.14400		875.00000 
 43692.65567		 305.27265			43387.38302		69.64400		324.00000 
 43692.65567		 949.71062			42742.94505		230.14400		875.00000 
 43692.65567		 305.27265			43387.38302		69.64400		324.00000 
 43692.65567		 949.71062			42742.94505		230.14400		875.00000 
 43692.65567		 305.27265			43387.38302		69.64400		324.00000 
 43692.65567		 949.71062			42742.94505		230.14400		875.00000 
 43692.65567		 305.27265			43387.38302		69.64400		324.00000 
 43692.65567		 949.71062			42742.94505		230.14400		875.00000 
 43692.65567		 305.27265			43387.38302		69.64400		324.00000 
 43692.65567		 949.71062			42742.94505		229.54400		875.00000 
 43692.65567		 305.27265			43387.38302		69.64400		324.00000 
 43692.65567		 949.71062			42742.94505		229.54400		875.00000 
 43692.65567		 305.27265			43387.38302		69.64400		324.00000 
 43692.65567		 949.71062			42742.94505		229.54400		875.00000 
 43692.65567		 305.27265			43387.38302		69.64400		324.00000 
 43692.65567		 949.71062			42742.94505		229.54400		875.00000 
 43692.65567		 305.27265			43387.38302		69.64400		324.00000 
 43692.65567		 949.71062			42742.94505		229.54400		875.00000 
 43692.65567		 305.27265			43387.38302		69.64400		324.00000 
 43692.65567		 949.71062			42742.94505		229.54400		875.00000 
 43692.65567		 305.27265			43387.38302		69.64400		324.00000 
 43692.65567		 949.71062			42742.94505		229.54400		875.00000 
 43692.65567		 305.27265			43387.38302		69.64400		324.00000 
 43692.65567		 949.71062			42742.94505		229.54400		875.00000 
 43692.65567		 305.27265			43387.38302		69.64400		324.00000 
 43692.65567		 949.71062			42742.94505		229.54400		875.00000 
 43692.65567		 305.27265			43387.38302		69.64400		324.00000 
 43692.65567		 949.71062			42742.94505		229.54400		875.00000 
 43692.65567		 305.27265			43387.38302		69.64400		324.00000 
 43692.65567		 949.71062			42742.94505		229.54400		875.00000 
 43692.65567		 305.27265			43387.38302		69.64400		324.00000 
 43692.65567		 949.71062			42742.94505		229.54400		875.00000 
 43692.65567		 305.27265			43387.38302		69.64400		324.00000 
 43692.65567		 949.71062			42742.94505		229.54400		875.00000 
 43692.65567		 305.27265			43387.38302		69.64400		324.00000 
 43692.65567		 949.71062			42742.94505		229.54400		875.00000 
 43692.65567		 305.27265			43387.38302		69.64400		324.00000 
 43692.65567		 949.71062			42742.94505		229.54400		875.00000 
 43692.65567		 305.27265			43387.38302		69.64400		324.00000 
 43692.65567		 949.71062			42742.94505		229.54400		875.00000 
 43692.65567		 305.27265			43387.38302		69.64400		324.00000 
 43692.65567		 949.71062			42742.94505		229.54400		875.00000 
 43692.65567		 305.27265			43387.38302		69.64400		324.00000 
 43692.65567		 949.71062			42742.94505		229.54400		875.00000 
 43692.65567		 305.27265			43387.38302		69.64400		324.00000 
 43692.65567		 949.71062			42742.94505		229.54400		875.00000 
 43692.65567		 305.27265			43387.38302		69.64400		324.00000 
 43692.65567		 949.71062			42742.94505		229.54400		875.00000 
 43692.65567		 305.27265			43387.38302		69.64400		324.00000 
 43692.65567		 949.71062			42742.94505		229.54400		875.00000 
 43692.65567		 305.27265			43387.38302		69.64400		324.00000 
 43692.65567		 949.71062			42742.94505		229.54400		875.00000 
 43692.65567		 305.27265			43387.38302		69.64400		324.00000 
 43692.65567		 949.71062			42742.94505		229.54400		875.00000 
 43692.65567		 305.27265			43387.38302		69.64400		324.00000 
 43692.65567		 949.71062			42742.94505		229.54400		875.00000 
 43692.65567		 305.27265			43387.38302		69.64400		324.00000 
 43692.65567		 949.71062			42742.94505		229.54400		875.00000 
 43692.65567		 305.27265			43387.38302		69.64400		324.00000 
 43692.65567		 949.71062			42742.94505		229.54400		875.00000 
 43692.65567		 305.27265			43387.38302		69.64400		324.00000 
 43692.65567		 949.71062			42742.94505		229.54400		875.00000 
 43692.65567		 305.27265			43387.38302		69.64400		324.00000 
 43692.65567		 949.71062			42742.94505		229.54400		875.00000 
 43692.65567		 305.27265			43387.38302		69.64400		324.00000 
 43692.65567		 949.71062			42742.94505		229.54400		875.00000 
 43692.65567		 305.27265			43387.38302		69.64400		324.00000 
 43692.65567		 949.71062			42742.94505		229.54400		875.00000 
 43692.65567		 305.27265			43387.38302		69.64400		324.00000 
 43692.65567		 949.71062			42742.94505		229.54400		875.00000 
 43692.65567		 305.27265			43387.38302		69.64400		324.00000 
 43692.65567		 949.71062			42742.94505		229.54400		875.00000 
 43692.65567		 305.27265			43387.38302		69.64400		324.00000 
 43692.65567		 949.71062			42742.94505		229.54400		875.00000 
 43692.65567		 305.27265			43387.38302		69.64400		324.00000 
 43692.65567		 949.71062			42742.94505		229.54400		875.00000 
 43692.65567		 305.27265			43387.38302		69.64400		324.00000 
 43692.65567		 949.71062			42742.94505		229.54400		875.00000 
 43692.65567		 305.27265			43387.38302		69.64400		324.00000 
 43692.65567		 949.71062			42742.94505		229.54400		875.00000 
 43692.65567		 305.27265			43387.38302		69.64400		324.00000 
 43692.65567		 949.71062			42742.94505		229.54400		875.00000 
 43692.65567		 305.27265			43387.38302		69.64400		324.00000 
 43692.65567		 949.71062			42742.94505		229.54400		875.00000 
 43692.65567		 305.27265			43387.38302		69.64400		324.00000 
 43692.65567		 949.71062			42742.94505		229.54400		875.00000 
 43692.65567		 305.27265			43387.38302		69.64400		324.00000 
 43692.65567		 949.71062			42742.94505		229.54400		875.00000 
 43692.65567		 305.27265			43387.38302		69.64400		324.00000 
 43692.65567		 949.71062			42742.94505		229.54400		875.00000 
 43692.65567		 305.27265			43387.38302		69.64400		324.00000 
 43692.65567		 949.71062			42742.94505		229.54400		875.00000 
 43692.65567		 305.27265			43387.38302		69.64400		324.00000 
 43692.65567		 949.71062			42742.94505		229.54400		875.00000 
 43692.65567		 305.27265			43387.38302		69.64400		324.00000 
 43692.65567		 949.71062			42742.94505		229.54400		875.00000 
 43692.65567		 305.27265			43387.38302		69.64400		324.00000 
 43692.65567		 949.71062			42742.94505		229.54400		875.00000 
 43692.65567		 305.27265			43387.38302		69.64400		324.00000 
 43692.65567		 949.71062			42742.94505		229.54400		875.00000 
 43692.65567		 305.27265			43387.38302		69.64400		324.00000 
 43692.65567		 949.71062			42742.94505		229.54400		875.00000 
 43692.65567		 305.27265			43387.38302		69.64400		324.00000 
 43692.65567		 949.71062			42742.94505		229.54400		875.00000 
 43692.65567		 305.27265			43387.38302		69.64400		324.00000 
 43692.65567		 949.71062			42742.94505		229.54400		875.00000 
 43692.65567		 305.27265			43387.38302		69.64400		324.00000 
 43692.65567		 949.71062			42742.94505		229.54400		875.00000 
 43692.65567		 305.27265			43387.38302		69.64400		324.00000 
 43692.65567		 949.71062			42742.94505		229.54400		875.00000 
 43692.65567		 305.27265			43387.38302		69.64400		324.00000 
 43692.65567		 949.71062			42742.94505		229.54400		875.00000 
 43692.65567		 305.27265			43387.38302		69.64400		324.00000 
 43692.65567		 949.71062			42742.94505		229.54400		875.00000 
 43692.65567		 305.27265			43387.38302		69.64400		324.00000 
 43692.65567		 949.71062			42742.94505		229.54400		875.00000 
 43692.65567		 305.27265			43387.38302		69.64400		324.00000 
 43692.65567		 949.71062			42742.94505		229.54400		875.00000 
 43692.65567		 305.27265			43387.38302		69.64400		324.00000 
 43692.65567		 949.71062			42742.94505		229.54400		875.00000 
 43692.65567		 305.27265			43387.38302		69.64400		324.00000 
 43692.65567		 949.71062			42742.94505		229.54400		875.00000 
 43692.65567		 305.27265			43387.38302		69.64400		324.00000 
 43692.65567		 949.71062			42742.94505		229.54400		875.00000 
 43692.65567		 305.27265			43387.38302		69.64400		324.00000 
 43692.65567		 949.71062			42742.94505		229.54400		875.00000 
 43692.65567		 305.27265			43387.38302		69.64400		324.00000 
 43692.65567		 949.71062			42742.94505		229.54400		875.00000 
 43692.65567		 305.27265			43387.38302		69.64400		324.00000 
 43692.65567		 949.71062			42742.94505		229.54400		875.00000 
 43692.65567		 305.27265			43387.38302		69.64400		324.00000 
 43692.65567		 949.71062			42742.94505		229.54400		875.00000 
 43692.65567		 305.27265			43387.38302		69.64400		324.00000 
 43692.65567		 949.71062			42742.94505		229.54400		875.00000 
 43692.65567		 305.27265			43387.38302		69.64400		324.00000 
 43692.65567		 949.71062			42742.94505		229.54400		875.00000 
 43692.65567		 305.27265			43387.38302		69.64400		324.00000 
 43692.65567		 949.71062			42742.94505		229.54400		875.00000 
 43692.65567		 305.27265			43387.38302		69.64400		324.00000 
 43692.65567		 949.71062			42742.94505		229.54400		875.00000 
 43692.65567		 305.27265			43387.38302		69.64400		324.00000 
 43692.65567		 949.71062			42742.94505		229.54400		875.00000 
 43692.65567		 305.27265			43387.38302		69.64400		324.00000 
 43692.65567		 949.71062			42742.94505		229.54400		875.00000 
 43692.65567		 305.27265			43387.38302		69.64400		324.00000 
 43692.65567		 949.71062			42742.94505		229.54400		875.00000 
 43692.65567		 305.27265			43387.38302		69.64400		324.00000 
 43692.65567		 949.71062			42742.94505		229.54400		875.00000 
 43692.65567		 305.27265			43387.38302		69.64400		324.00000 
 43692.65567		 949.71062			42742.94505		229.54400		875.00000 
 43692.65567		 305.27265			43387.38302		69.64400		324.00000 
 43692.65567		 949.71062			42742.94505		229.54400		875.00000 
 43692.65567		 305.27265			43387.38302		69.64400		324.00000 
 43692.65567		 949.71062			42742.94505		229.54400		875.00000 
 43692.65567		 305.27265			43387.38302		69.64400		324.00000 
 43692.65567		 949.71062			42742.94505		229.54400		875.00000 
 43692.65567		 305.27265			43387.38302		69.64400		324.00000 
 43692.65567		 949.71062			42742.94505		229.54400		875.00000 
 43692.65567		 305.27265			43387.38302		69.64400		324.00000 
 43692.65567		 949.71062			42742.94505		229.54400		875.00000 
 43692.65567		 305.27265			43387.38302		69.64400		324.00000 
 43692.65567		 949.71062			42742.94505		229.54400		875.00000 
 43692.65567		 305.27265			43387.38302		69.64400		324.00000 
 43692.65567		 949.71062			42742.94505		229.54400		875.00000 
 43692.65567		 305.27265			43387.38302		69.64400		324.00000 
 43692.65567		 949.71062			42742.94505		229.54400		875.00000 
 43692.65567		 305.27265			43387.38302		69.64400		324.00000 
 43692.65567		 949.71062			42742.94505		229.54400		875.00000 
 43692.65567		 305.27265			43387.38302		69.64400		324.00000 
 43692.65567		 949.71062			42742.94505		229.54400		875.00000 
 43692.65567		 305.27265			43387.38302		69.64400		324.00000 
 43692.65567		 949.71062			42742.94505		229.54400		875.00000 
 43692.65567		 305.27265			43387.38302		69.64400		324.00000 
 43692.65567		 949.71062			42742.94505		229.54400		875.00000 
 43692.65567		 305.27265			43387.38302		69.64400		324.00000 
 43692.65567		 949.71062			42742.94505		229.54400		875.00000 
 43692.65567		 305.27265			43387.38302		69.64400		324.00000 
 43692.65567		 949.71062			42742.94505		229.54400		875.00000 
 43692.65567		 305.27265			43387.38302		69.64400		324.00000 
 43692.65567		 949.71062			42742.94505		229.54400		875.00000 
 43692.65567		 305.27265			43387.38302		69.64400		324.00000 
 43692.65567		 949.71062			42742.94505		229.54400		875.00000 
 43692.65567		 305.27265			43387.38302		69.64400		324.00000 
 43692.65567		 949.71062			42742.94505		229.54400		875.00000 
 43692.65567		 305.27265			43387.38302		69.64400		324.00000 
 43692.65567		 949.71062			42742.94505		229.54400		875.00000 
 43692.65567		 305.27265			43387.38302		69.64400		324.00000 
 43692.65567		 949.71062			42742.94505		229.54400		875.00000 
 43692.65567		 305.27265			43387.38302		69.64400		324.00000 
 43692.65567		 949.71062			42742.94505		229.54400		875.00000 
 43692.65567		 305.27265			43387.38302		69.64400		324.00000 
 43692.65567		 949.71062			42742.94505		229.54400		875.00000 
 43692.65567		 305.27265			43387.38302		69.64400		324.00000 
 43692.65567		 949.71062			42742.94505		229.54400		875.00000 
 43692.65567		 305.27265			43387.38302		69.64400		324.00000 
 43692.65567		 949.71062			42742.94505		229.54400		875.00000 
 43692.65567		 305.27265			43387.38302		69.64400		324.00000 
 43692.65567		 949.71062			42742.94505		229.54400		875.00000 
 43692.65567		 305.27265			43387.38302		69.64400		324.00000 
 43692.65567		 949.71062			42742.94505		229.54400		875.00000 
 43692.65567		 305.27265			43387.38302		69.64400		324.00000 
 43692.65567		 949.71062			42742.94505		229.54400		875.00000 
 43692.65567		 305.27265			43387.38302		69.64400		324.00000 
 43692.65567		 949.71062			42742.94505		229.54400		875.00000 
 43692.65567		 305.27265			43387.38302		69.64400		324.00000 
 43692.65567		 949.71062			42742.94505		229.54400		875.00000 
 43692.65567		 305.27265			43387.38302		69.64400		324.00000 
 43692.65567		 949.71062			42742.94505		229.54400		875.00000 
 43692.65567		 305.27265			43387.38302		69.64400		324.00000 
 43692.65567		 949.71062			42742.94505		229.54400		875.00000 
 43692.65567		 305.27265			43387.38302		69.64400		324.00000 
 43692.65567		 949.71062			42742.94505		229.54400		875.00000 
 43692.65567		 305.27265			43387.38302		69.64400		324.00000 
 43692.65567		 949.71062			42742.94505		229.54400		875.00000 
 43692.65567		 305.27265			43387.38302		69.64400		324.00000 
 43692.65567		 949.71062			42742.94505		229.54400		875.00000 
 43692.65567		 305.27265			43387.38302		69.64400		324.00000 
 43692.65567		 949.71062			42742.94505		229.54400		875.00000 
 43692.65567		 305.27265			43387.38302		69.64400		324.00000 
 43692.65567		 949.71062			42742.94505		229.54400		875.00000 
 43692.65567		 305.27265			43387.38302		69.64400		324.00000 
 43692.65567		 949.71062			42742.94505		229.54400		875.00000 
 43692.65567		 305.27265			43387.38302		69.64400		324.00000 
 43692.65567		 949.71062			42742.94505		229.54400		875.00000 
 43692.65567		 305.27265			43387.38302		69.64400		324.00000 
 43692.65567		 949.71062			42742.94505		229.54400		875.00000 
 43692.65567		 305.27265			43387.38302		69.64400		324.00000 
 43692.65567		 949.71062			42742.94505		229.54400		875.00000 
 43692.65567		 305.27265			43387.38302		69.64400		324.00000 
 43692.65567		 949.71062			42742.94505		229.54400		875.00000 
 43692.65567		 305.27265			43387.38302		69.64400		324.00000 
 43692.65567		 949.71062			42742.94505		229.54400		875.00000 
 43692.65567		 305.27265			43387.38302		69.64400		324.00000 
 43692.65567		 949.71062			42742.94505		229.54400		875.00000 
 43692.65567		 305.27265			43387.38302		69.64400		324.00000 
 43692.65567		 949.71062			42742.94505		229.54400		875.00000 
 43692.65567		 305.27265			43387.38302		69.64400		324.00000 
 43692.65567		 949.71062			42742.94505		229.54400		875.00000 
 43692.65567		 305.27265			43387.38302		69.64400		324.00000 
 43692.65567		 949.71062			42742.94505		229.54400		875.00000 
 43692.65567		 305.27265			43387.38302		69.64400		324.00000 
 43692.65567		 949.71062			42742.94505		229.54400		875.00000 
 43692.65567		 305.27265			43387.38302		69.64400		324.00000 
 43692.65567		 949.71062			42742.94505		229.54400		875.00000 
 43692.65567		 305.27265			43387.38302		69.64400		324.00000 
 43692.65567		 949.71062			42742.94505		229.54400		875.00000 
 43692.65567		 305.27265			43387.38302		69.64400		324.00000 
 43692.65567		 949.71062			42742.94505		229.54400		875.00000 
 43692.65567		 305.27265			43387.38302		69.64400		324.00000 
 43692.65567		 949.71062			42742.94505		229.54400		875.00000 
 43692.65567		 305.27265			43387.38302		69.64400		324.00000 
 43692.65567		 949.71062			42742.94505		229.54400		875.00000 
 43692.65567		 305.27265			43387.38302		69.64400		324.00000 
 43692.65567		 949.71062			42742.94505		229.54400		875.00000 
 43692.65567		 305.27265			43387.38302		69.64400		324.00000 
 43692.65567		 949.71062			42742.94505		229.54400		875.00000 
 43692.65567		 305.27265			43387.38302		69.64400		324.00000 
 43692.65567		 949.71062			42742.94505		229.54400		875.00000 
 43692.65567		 305.27265			43387.38302		69.64400		324.00000 
 43692.65567		 949.71062			42742.94505		229.54400		875.00000 
 43692.65567		 305.27265			43387.38302		69.64400		324.00000 
 43692.65567		 949.71062			42742.94505		229.54400		875.00000 
 43692.65567		 305.27265			43387.38302		69.64400		324.00000 
 43692.65567		 949.71062			42742.94505		229.54400		875.00000 
 43692.65567		 305.27265			43387.38302		69.64400		324.00000 
 43692.65567		 949.71062			42742.94505		229.54400		875.00000 
 43692.65567		 305.27265			43387.38302		69.64400		324.00000 
 43692.65567		 949.71062			42742.94505		228.94600		875.00000 
 43692.65567		 305.27265			43387.38302		69.64400		324.00000 
 43692.65567		 949.71062			42742.94505		228.94600		875.00000 
 43692.65567		 305.27265			43387.38302		69.64400		324.00000 
 43692.65567		 949.71062			42742.94505		228.94600		875.00000 
 43692.65567		 305.27265			43387.38302		69.64400		324.00000 
 43692.65567		 949.71062			42742.94505		228.94600		875.00000 
 43692.65567		 305.27265			43387.38302		69.64400		324.00000 
 43692.65567		 949.71062			42742.94505		228.94600		875.00000 
 43692.65567		 305.27265			43387.38302		69.64400		324.00000 
 43692.65567		 949.71062			42742.94505		228.94600		875.00000 
 43692.65567		 305.27265			43387.38302		69.64400		324.00000 
 43692.65567		 949.71062			42742.94505		228.94600		875.00000 
 43692.65567		 305.27265			43387.38302		69.64400		324.00000 
 43692.65567		 949.71062			42742.94505		228.94600		875.00000 
 43692.65567		 305.27265			43387.38302		69.64400		324.00000 
 43692.65567		 949.71062			42742.94505		228.94600		875.00000 
 43692.65567		 305.27265			43387.38302		69.64400		324.00000 
 43692.65567		 949.71062			42742.94505		228.94600		875.00000 
 43692.65567		 305.27265			43387.38302		69.64400		324.00000 
 43692.65567		 949.71062			42742.94505		228.94600		875.00000 
 43692.65567		 305.27265			43387.38302		69.64400		324.00000 
 43692.65567		 949.71062			42742.94505		228.94600		875.00000 
 43692.65567		 305.27265			43387.38302		69.64400		324.00000 
 43692.65567		 949.71062			42742.94505		228.94600		875.00000 
 43692.65567		 305.27265			43387.38302		69.64400		324.00000 
 43692.65567		 949.71062			42742.94505		228.94600		875.00000 
 43692.65567		 305.27265			43387.38302		69.64400		324.00000 
 43692.65567		 949.71062			42742.94505		228.94600		875.00000 
 43692.65567		 305.27265			43387.38302		69.64400		324.00000 
 43692.65567		 949.71062			42742.94505		228.94600		875.00000 
 43692.65567		 305.27265			43387.38302		69.64400		324.00000 
 43692.65567		 949.71062			42742.94505		228.94600		875.00000 
 43692.65567		 305.27265			43387.38302		69.64400		324.00000 
 43692.65567		 949.71062			42742.94505		228.94600		875.00000 
 43692.65567		 305.27265			43387.38302		69.64400		324.00000 
 43692.65567		 949.71062			42742.94505		228.94600		875.00000 
 43692.65567		 305.27265			43387.38302		69.64400		324.00000 
 43692.65567		 949.71062			42742.94505		228.94600		875.00000 
 43692.65567		 305.27265			43387.38302		69.64400		324.00000 
 43692.65567		 949.71062			42742.94505		228.94600		875.00000 
 43692.65567		 305.27265			43387.38302		69.64400		324.00000 
 43692.65567		 949.71062			42742.94505		228.94600		875.00000 
 43692.65567		 305.27265			43387.38302		69.64400		324.00000 
 43692.65567		 949.71062			42742.94505		228.94600		875.00000 
 43692.65567		 305.27265			43387.38302		69.64400		324.00000 
 43692.65567		 949.71062			42742.94505		228.94600		875.00000 
 43692.65567		 305.27265			43387.38302		69.64400		324.00000 
 43692.65567		 949.71062			42742.94505		228.94600		875.00000 
 43692.65567		 305.27265			43387.38302		69.64400		324.00000 
 43692.65567		 949.71062			42742.94505		228.94600		875.00000 
 43692.65567		 305.27265			43387.38302		69.64400		324.00000 
 43692.65567		 949.71062			42742.94505		228.94600		875.00000 
 43692.65567		 305.27265			43387.38302		69.64400		324.00000 
 43692.65567		 949.71062			42742.94505		228.94600		875.00000 
 43692.65567		 305.27265			43387.38302		69.64400		324.00000 
 43692.65567		 949.71062			42742.94505		228.94600		875.00000 
 43692.65567		 305.27265			43387.38302		69.64400		324.00000 
 43692.65567		 949.71062			42742.94505		228.94600		875.00000 
 43692.65567		 305.27265			43387.38302		69.64400		324.00000 
 43692.65567		 949.71062			42742.94505		228.94600		875.00000 
 43692.65567		 305.27265			43387.38302		69.64400		324.00000 
 43692.65567		 949.71062			42742.94505		228.94600		875.00000 
 43692.65567		 305.27265			43387.38302		69.64400		324.00000 
 43692.65567		 949.71062			42742.94505		228.94600		875.00000 
 43692.65567		 305.27265			43387.38302		69.64400		324.00000 
 43692.65567		 949.71062			42742.94505		228.94600		875.00000 
 43692.65567		 305.27265			43387.38302		69.64400		324.00000 
 43692.65567		 949.71062			42742.94505		228.94600		875.00000 
 43692.65567		 305.27265			43387.38302		69.64400		324.00000 
 43692.65567		 949.71062			42742.94505		228.94600		875.00000 
 43692.65567		 305.27265			43387.38302		69.64400		324.00000 
 43692.65567		 949.71062			42742.94505		228.94600		875.00000 
 43692.65567		 305.27265			43387.38302		69.64400		324.00000 
 43692.65567		 949.71062			42742.94505		228.94600		875.00000 
 43692.65567		 305.27265			43387.38302		69.64400		324.00000 
 43692.65567		 949.71062			42742.94505		228.94600		875.00000 
 43692.65567		 305.27265			43387.38302		69.64400		324.00000 
 43692.65567		 949.71062			42742.94505		228.94600		875.00000 
 43692.65567		 305.27265			43387.38302		69.64400		324.00000 
 43692.65567		 949.71062			42742.94505		228.94600		875.00000 
 43692.65567		 305.27265			43387.38302		69.64400		324.00000 
 43692.65567		 949.71062			42742.94505		228.94600		875.00000 
 43692.65567		 305.27265			43387.38302		69.64400		324.00000 
 43692.65567		 949.71062			42742.94505		228.94600		875.00000 
 43692.65567		 305.27265			43387.38302		69.64400		324.00000 
 43692.65567		 949.71062			42742.94505		228.94600		875.00000 
 43692.65567		 305.27265			43387.38302		69.64400		324.00000 
 43692.65567		 949.71062			42742.94505		228.94600		875.00000 
 43692.65567		 305.27265			43387.38302		69.64400		324.00000 
 43692.65567		 949.71062			42742.94505		228.94600		875.00000 
 43692.65567		 305.27265			43387.38302		69.64400		324.00000 
 43692.65567		 949.71062			42742.94505		228.94600		875.00000 
 43692.65567		 305.27265			43387.38302		69.64400		324.00000 
 43692.65567		 949.71062			42742.94505		228.94600		875.00000 
 43692.65567		 305.27265			43387.38302		69.64400		324.00000 
 43692.65567		 949.71062			42742.94505		228.94600		875.00000 
 43692.65567		 305.27265			43387.38302		69.64400		324.00000 
 43692.65567		 949.71062			42742.94505		228.94600		875.00000 
 43692.65567		 305.27265			43387.38302		69.64400		324.00000 
 43692.65567		 949.71062			42742.94505		228.94600		875.00000 
 43692.65567		 305.27265			43387.38302		69.64400		324.00000 
 43692.65567		 949.71062			42742.94505		228.94600		875.00000 
 43692.65567		 305.27265			43387.38302		69.64400		324.00000 
 43692.65567		 949.71062			42742.94505		228.94600		875.00000 
 43692.65567		 305.27265			43387.38302		69.64400		324.00000 
 43692.65567		 949.71062			42742.94505		228.94600		875.00000 
 43692.65567		 305.27265			43387.38302		69.64400		324.00000 
 43692.65567		 949.71062			42742.94505		228.94600		875.00000 
 43692.65567		 305.27265			43387.38302		69.64400		324.00000 
 43692.65567		 949.71062			42742.94505		228.94600		875.00000 
 43692.65567		 305.27265			43387.38302		69.64400		324.00000 
 43692.65567		 949.71062			42742.94505		228.94600		875.00000 
 43692.65567		 305.27265			43387.38302		69.64400		324.00000 
 43692.65567		 949.71062			42742.94505		228.94600		875.00000 
 43692.65567		 305.27265			43387.38302		69.64400		324.00000 
 43692.65567		 949.71062			42742.94505		228.94600		875.00000 
 43692.65567		 305.27265			43387.38302		69.64400		324.00000 
 43692.65567		 949.71062			42742.94505		228.94600		875.00000 
 43692.65567		 305.27265			43387.38302		69.64400		324.00000 
 43692.65567		 949.71062			42742.94505		228.94600		875.00000 
 43692.65567		 305.27265			43387.38302		69.64400		324.00000 
 43692.65567		 949.71062			42742.94505		228.94600		875.00000 
 43692.65567		 305.27265			43387.38302		69.64400		324.00000 
 43692.65567		 949.71062			42742.94505		228.94600		875.00000 
 43692.65567		 305.27265			43387.38302		69.64400		324.00000 
 43692.65567		 949.71062			42742.94505		228.94600		875.00000 
 43692.65567		 305.27265			43387.38302		69.64400		324.00000 
 43692.65567		 949.71062			42742.94505		229.54400		875.00000 
 43692.65567		 305.27265			43387.38302		69.64400		324.00000 
 43692.65567		 949.71062			42742.94505		229.54400		875.00000 
 43692.65567		 305.27265			43387.38302		69.64400		324.00000 
 43692.65567		 949.71062			42742.94505		229.54400		875.00000 
 43692.65567		 305.27265			43387.38302		69.64400		324.00000 
 43692.65567		 949.71062			42742.94505		229.54400		875.00000 
 43692.65567		 305.27265			43387.38302		69.64400		324.00000 
 43692.65567		 949.71062			42742.94505		229.54400		875.00000 
 43692.65567		 305.27265			43387.38302		69.64400		324.00000 
 43692.65567		 949.71062			42742.94505		229.54400		875.00000 
 43692.65567		 305.27265			43387.38302		69.64400		324.00000 
 43692.65567		 949.71062			42742.94505		229.54400		875.00000 
 43692.65567		 305.27265			43387.38302		69.64400		324.00000 
 43692.65567		 949.71062			42742.94505		229.54400		875.00000 
 43692.65567		 305.27265			43387.38302		69.64400		324.00000 
 43692.65567		 949.71062			42742.94505		229.54400		875.00000 
 43692.65567		 305.27265			43387.38302		69.64400		324.00000 
 43692.65567		 949.71062			42742.94505		229.54400		875.00000 
 43692.65567		 305.27265			43387.38302		69.64400		324.00000 
 43692.65567		 949.71062			42742.94505		229.54400		875.00000 
 43692.65567		 305.27265			43387.38302		69.64400		324.00000 
 43692.65567		 949.71062			42742.94505		229.54400		875.00000 
 43692.65567		 305.27265			43387.38302		69.64400		324.00000 
 43692.65567		 949.71062			42742.94505		229.54400		875.00000 
 43692.65567		 305.27265			43387.38302		69.64400		324.00000 
 43692.65567		 949.71062			42742.94505		229.54400		875.00000 
 43692.65567		 305.27265			43387.38302		69.64400		324.00000 
 43692.65567		 949.71062			42742.94505		229.54400		875.00000 
 43692.65567		 305.27265			43387.38302		69.64400		324.00000 
 43692.65567		 949.71062			42742.94505		229.54400		875.00000 
 43692.65567		 305.27265			43387.38302		69.64400		324.00000 
 43692.65567		 949.71062			42742.94505		229.54400		875.00000 
 43692.65567		 305.27265			43387.38302		69.64400		324.00000 
 43692.65567		 949.71062			42742.94505		229.54400		875.00000 
 43692.65567		 305.27265			43387.38302		69.64400		324.00000 
 43692.65567		 949.71062			42742.94505		229.54400		875.00000 
 43692.65567		 305.27265			43387.38302		69.64400		324.00000 
 43692.65567		 949.71062			42742.94505		229.54400		875.00000 
 43692.65567		 305.27265			43387.38302		69.64400		324.00000 
 43692.65567		 949.71062			42742.94505		229.54400		875.00000 
 43692.65567		 305.27265			43387.38302		69.64400		324.00000 
 43692.65567		 949.71062			42742.94505		229.54400		875.00000 
 43692.65567		 305.27265			43387.38302		69.64400		324.00000 
 43692.65567		 949.71062			42742.94505		229.54400		875.00000 
 43692.65567		 305.27265			43387.38302		69.64400		324.00000 
 43692.65567		 949.71062			42742.94505		229.54400		875.00000 
 43692.65567		 305.27265			43387.38302		69.64400		324.00000 
 43692.65567		 949.71062			42742.94505		229.54400		875.00000 
 43692.65567		 305.27265			43387.38302		69.64400		324.00000 
 43692.65567		 949.71062			42742.94505		229.54400		875.00000 
 43692.65567		 305.27265			43387.38302		69.64400		324.00000 
 43692.65567		 949.71062			42742.94505		229.54400		875.00000 
 43692.65567		 305.27265			43387.38302		69.64400		324.00000 
 43692.65567		 949.71062			42742.94505		229.54400		875.00000 
 43692.65567		 305.27265			43387.38302		69.64400		324.00000 
 43692.65567		 949.71062			42742.94505		229.54400		875.00000 
 43692.65567		 305.27265			43387.38302		69.64400		324.00000 
 43692.65567		 949.71062			42742.94505		229.54400		875.00000 
 43692.65567		 305.27265			43387.38302		69.64400		324.00000 
 43692.65567		 949.71062			42742.94505		229.54400		875.00000 
 43692.65567		 305.27265			43387.38302		69.64400		324.00000 
 43692.65567		 949.71062			42742.94505		229.54400		875.00000 
 43692.65567		 305.27265			43387.38302		69.64400		324.00000 
 43692.65567		 949.71062			42742.94505		229.54400		875.00000 
 43692.65567		 305.27265			43387.38302		69.64400		324.00000 
 43692.65567		 949.71062			42742.94505		229.54400		875.00000 
 43692.65567		 305.27265			43387.38302		69.64400		324.00000 
 43692.65567		 949.71062			42742.94505		229.54400		875.00000 
 43692.65567		 305.27265			43387.38302		69.64400		324.00000 
 43692.65567		 949.71062			42742.94505		229.54400		875.00000 
 43692.65567		 305.27265			43387.38302		69.64400		324.00000 
 43692.65567		 949.71062			42742.94505		229.54400		875.00000 
 43692.65567		 305.27265			43387.38302		69.64400		324.00000 
 43692.65567		 949.71062			42742.94505		229.54400		875.00000 
 43692.65567		 305.27265			43387.38302		69.64400		324.00000 
 43692.65567		 949.71062			42742.94505		229.54400		875.00000 
 43692.65567		 305.27265			43387.38302		69.64400		324.00000 
 43692.65567		 949.71062			42742.94505		229.54400		875.00000 
 43692.65567		 305.27265			43387.38302		69.64400		324.00000 
 43692.65567		 949.71062			42742.94505		229.54400		875.00000 
 43692.65567		 305.27265			43387.38302		69.64400		324.00000 
 43692.65567		 949.71062			42742.94505		229.54400		875.00000 
 43692.65567		 305.27265			43387.38302		69.64400		324.00000 
 43692.65567		 949.71062			42742.94505		229.54400		875.00000 
 43692.65567		 305.27265			43387.38302		69.64400		324.00000 
 43692.65567		 949.71062			42742.94505		229.54400		875.00000 
 43692.65567		 305.27265			43387.38302		69.64400		324.00000 
 43692.65567		 949.71062			42742.94505		229.54400		875.00000 
 43692.65567		 305.27265			43387.38302		69.64400		324.00000 
 43692.65567		 949.71062			42742.94505		229.54400		875.00000 
 43692.65567		 305.27265			43387.38302		69.64400		324.00000 
 43692.65567		 949.71062			42742.94505		229.54400		875.00000 
 43692.65567		 305.27265			43387.38302		69.64400		324.00000 
 43692.65567		 949.71062			42742.94505		229.54400		875.00000 
 43692.65567		 305.27265			43387.38302		69.64400		324.00000 
 43692.65567		 949.71062			42742.94505		229.54400		875.00000 
 43692.65567		 305.27265			43387.38302		69.64400		324.00000 
 43692.65567		 949.71062			42742.94505		229.54400		875.00000 
 43692.65567		 305.27265			43387.38302		69.64400		324.00000 
 43692.65567		 949.71062			42742.94505		229.54400		875.00000 
 43692.65567		 305.27265			43387.38302		69.64400		324.00000 
 43692.65567		 949.71062			42742.94505		229.54400		875.00000 
 43692.65567		 305.27265			43387.38302		69.64400		324.00000 
 43692.65567		 949.71062			42742.94505		229.54400		875.00000 
 43692.65567		 305.27265			43387.38302		69.64400		324.00000 
 43692.65567		 949.71062			42742.94505		229.54400		875.00000 
 43692.65567		 305.27265			43387.38302		69.64400		324.00000 
 43692.65567		 949.71062			42742.94505		229.54400		875.00000 
 43692.65567		 305.27265			43387.38302		69.64400		324.00000 
 43692.65567		 949.71062			42742.94505		229.54400		875.00000 
 43692.65567		 305.27265			43387.38302		69.64400		324.00000 
 43692.65567		 949.71062			42742.94505		229.54400		875.00000 
 43692.65567		 305.27265			43387.38302		69.64400		324.00000 
 43692.65567		 949.71062			42742.94505		229.54400		875.00000 
 43692.65567		 305.27265			43387.38302		69.64400		324.00000 
 43692.65567		 949.71062			42742.94505		229.54400		875.00000 
 43692.65567		 305.27265			43387.38302		69.64400		324.00000 
 43692.65567		 949.71062			42742.94505		229.54400		875.00000 
 43692.65567		 305.27265			43387.38302		69.64400		324.00000 
 43692.65567		 949.71062			42742.94505		229.54400		875.00000 
 43692.65567		 305.27265			43387.38302		69.64400		324.00000 
 43692.65567		 949.71062			42742.94505		229.54400		875.00000 
 43692.65567		 305.27265			43387.38302		69.64400		324.00000 
 43692.65567		 949.71062			42742.94505		229.54400		875.00000 
 43692.65567		 305.27265			43387.38302		69.64400		324.00000 
 43692.65567		 949.71062			42742.94505		229.54400		875.00000 
 43692.65567		 305.27265			43387.38302		69.64400		324.00000 
 43692.65567		 949.71062			42742.94505		229.54400		875.00000 
 43692.65567		 305.27265			43387.38302		69.64400		324.00000 
 43692.65567		 949.71062			42742.94505		229.54400		875.00000 
 43692.65567		 305.27265			43387.38302		69.64400		324.00000 
 43692.65567		 949.71062			42742.94505		229.54400		875.00000 
 43692.65567		 305.27265			43387.38302		69.64400		324.00000 
 43692.65567		 949.71062			42742.94505		229.54400		875.00000 
 43692.65567		 305.27265			43387.38302		69.64400		324.00000 
 43692.65567		 949.71062			42742.94505		229.54400		875.00000 
 43692.65567		 305.27265			43387.38302		69.64400		324.00000 
 43692.65567		 949.71062			42742.94505		229.54400		875.00000 
 43692.65567		 305.27265			43387.38302		69.64400		324.00000 
 43692.65567		 949.71062			42742.94505		229.54400		875.00000 
 43692.65567		 305.27265			43387.38302		69.64400		324.00000 
 43692.65567		 949.71062			42742.94505		229.54400		875.00000 
 43692.65567		 305.27265			43387.38302		69.64400		324.00000 
 43692.65567		 949.71062			42742.94505		229.54400		875.00000 
 43692.65567		 305.27265			43387.38302		69.64400		324.00000 
 43692.65567		 949.71062			42742.94505		229.54400		875.00000 
 43692.65567		 305.27265			43387.38302		69.64400		324.00000 
 43692.65567		 949.71062			42742.94505		229.54400		875.00000 
 43692.65567		 305.27265			43387.38302		69.64400		324.00000 
 43692.65567		 949.71062			42742.94505		229.54400		875.00000 
 43692.65567		 305.27265			43387.38302		69.64400		324.00000 
 43692.65567		 949.71062			42742.94505		229.54400		875.00000 
 43692.65567		 305.27265			43387.38302		69.64400		324.00000 
 43692.65567		 949.71062			42742.94505		229.54400		875.00000 
 43692.65567		 305.27265			43387.38302		69.64400		324.00000 
 43692.65567		 949.71062			42742.94505		229.54400		875.00000 
 43692.65567		 305.27265			43387.38302		69.64400		324.00000 
 43692.65567		 949.71062			42742.94505		229.54400		875.00000 
 43692.65567		 305.27265			43387.38302		69.64400		324.00000 
 43692.65567		 949.71062			42742.94505		229.54400		875.00000 
 43692.65567		 305.27265			43387.38302		69.64400		324.00000 
 43692.65567		 949.71062			42742.94505		229.54400		875.00000 
 43692.65567		 305.27265			43387.38302		69.64400		324.00000 
 43692.65567		 949.71062			42742.94505		229.54400		875.00000 
 43692.65567		 305.27265			43387.38302		69.64400		324.00000 
 43692.65567		 949.71062			42742.94505		229.54400		875.00000 
 43692.65567		 305.27265			43387.38302		69.64400		324.00000 
 43692.65567		 949.71062			42742.94505		229.54400		875.00000 
 43692.65567		 305.27265			43387.38302		69.64400		324.00000 
 43692.65567		 949.71062			42742.94505		229.54400		875.00000 
 43692.65567		 305.27265			43387.38302		69.64400		324.00000 
 43692.65567		 949.71062			42742.94505		229.54400		875.00000 
 43692.65567		 305.27265			43387.38302		69.64400		324.00000 
 43692.65567		 949.71062			42742.94505		229.54400		875.00000 
 43692.65567		 305.27265			43387.38302		69.64400		324.00000 
 43692.65567		 949.71062			42742.94505		229.54400		875.00000 
 43692.65567		 305.27265			43387.38302		69.64400		324.00000 
 43692.65567		 949.71062			42742.94505		229.54400		875.00000 
 43692.65567		 305.27265			43387.38302		69.64400		324.00000 
 43692.65567		 949.71062			42742.94505		229.54400		875.00000 
 43692.65567		 305.27265			43387.38302		69.64400		324.00000 
 43692.65567		 949.71062			42742.94505		229.54400		875.00000 
 43692.65567		 305.27265			43387.38302		69.64400		324.00000 
 43692.65567		 949.71062			42742.94505		229.54400		875.00000 
 43692.65567		 305.27265			43387.38302		69.64400		324.00000 
 43692.65567		 949.71062			42742.94505		229.54400		875.00000 
 43692.65567		 305.27265			43387.38302		69.64400		324.00000 
 43692.65567		 949.71062			42742.94505		229.54400		875.00000 
 43692.65567		 305.27265			43387.38302		69.64400		324.00000 
 43692.65567		 949.71062			42742.94505		229.54400		875.00000 
 43692.65567		 305.27265			43387.38302		69.64400		324.00000 
 43692.65567		 949.71062			42742.94505		229.54400		875.00000 
 43692.65567		 305.27265			43387.38302		69.64400		324.00000 
 43692.65567		 949.71062			42742.94505		229.54400		875.00000 
 43692.65567		 305.27265			43387.38302		69.64400		324.00000 
 43692.65567		 949.71062			42742.94505		229.54400		875.00000 
 43692.65567		 305.27265			43387.38302		69.64400		324.00000 
 43692.65567		 949.71062			42742.94505		229.54400		875.00000 
 43692.65567		 305.27265			43387.38302		69.64400		324.00000 
 43692.65567		 949.71062			42742.94505		229.54400		875.00000 
 43692.65567		 305.27265			43387.38302		69.64400		324.00000 
 43692.65567		 949.71062			42742.94505		229.54400		875.00000 
 43692.65567		 305.27265			43387.38302		69.64400		324.00000 
 43692.65567		 949.71062			42742.94505		229.54400		875.00000 
 43692.65567		 305.27265			43387.38302		69.64400		324.00000 
 43692.65567		 949.71062			42742.94505		229.54400		875.00000 
 43692.65567		 305.27265			43387.38302		69.64400		324.00000 
 43692.65567		 949.71062			42742.94505		229.54400		875.00000 
 43692.65567		 305.27265			43387.38302		69.64400		324.00000 
 43692.65567		 949.71062			42742.94505		229.54400		875.00000 
 43692.65567		 305.27265			43387.38302		69.64400		324.00000 
 43692.65567		 949.71062			42742.94505		229.54400		875.00000 
 43692.65567		 305.27265			43387.38302		69.64400		324.00000 
 43692.65567		 949.71062			42742.94505		229.54400		875.00000 
 43692.65567		 305.27265			43387.38302		69.64400		324.00000 
 43692.65567		 949.71062			42742.94505		229.54400		875.00000 
 43692.65567		 305.27265			43387.38302		69.64400		324.00000 
 43692.65567		 949.71062			42742.94505		229.54400		875.00000 
 43692.65567		 305.27265			43387.38302		69.64400		324.00000 
 43692.65567		 949.71062			42742.94505		229.54400		875.00000 
 43692.65567		 305.27265			43387.38302		69.64400		324.00000 
 43692.65567		 949.71062			42742.94505		229.54400		875.00000 
 43692.65567		 305.27265			43387.38302		69.64400		324.00000 
 43692.65567		 949.71062			42742.94505		229.54400		875.00000 
 43692.65567		 305.27265			43387.38302		69.64400		324.00000 
 43692.65567		 949.71062			42742.94505		229.54400		875.00000 
 43692.65567		 305.27265			43387.38302		69.64400		324.00000 
 43692.65567		 949.71062			42742.94505		229.54400		875.00000 
 43692.65567		 305.27265			43387.38302		69.64400		324.00000 
 43692.65567		 949.71062			42742.94505		229.54400		875.00000 
 43692.65567		 305.27265			43387.38302		69.64400		324.00000 
 43692.65567		 949.71062			42742.94505		229.54400		875.00000 
 43692.65567		 305.27265			43387.38302		69.64400		324.00000 
 43692.65567		 949.71062			42742.94505		229.54400		875.00000 
 43692.65567		 305.27265			43387.38302		69.64400		324.00000 
 43692.65567		 949.71062			42742.94505		229.54400		875.00000 
 43692.65567		 305.27265			43387.38302		69.64400		324.00000 
 43692.65567		 949.71062			42742.94505		229.54400		875.00000 
 43692.65567		 305.27265			43387.38302		69.64400		324.00000 
 43692.65567		 949.71062			42742.94505		229.54400		875.00000 
 43692.65567		 305.27265			43387.38302		69.64400		324.00000 
 43692.65567		 949.71062			42742.94505		229.54400		875.00000 
 43692.65567		 305.27265			43387.38302		69.64400		324.00000 
 43692.65567		 949.71062			42742.94505		229.54400		875.00000 
 43692.65567		 305.27265			43387.38302		69.64400		324.00000 
 43692.65567		 949.71062			42742.94505		229.54400		875.00000 
 43692.65567		 305.27265			43387.38302		69.64400		324.00000 
 43692.65567		 949.71062			42742.94505		229.54400		875.00000 
 43692.65567		 305.27265			43387.38302		69.64400		324.00000 
 43692.65567		 949.71062			42742.94505		229.54400		875.00000 
 43692.65567		 305.27265			43387.38302		69.64400		324.00000 
 43692.65567		 949.71062			42742.94505		229.54400		875.00000 
 43692.65567		 305.27265			43387.38302		69.64400		324.00000 
 43692.65567		 949.71062			42742.94505		229.54400		875.00000 
 43692.65567		 305.27265			43387.38302		69.64400		324.00000 
 43692.65567		 949.71062			42742.94505		229.54400		875.00000 
 43692.65567		 305.27265			43387.38302		69.64400		324.00000 
 43692.65567		 949.71062			42742.94505		229.54400		875.00000 
 43692.65567		 305.27265			43387.38302		69.64400		324.00000 
 43692.65567		 949.71062			42742.94505		229.54400		875.00000 
 43692.65567		 305.27265			43387.38302		69.64400		324.00000 
 43692.65567		 949.71062			42742.94505		229.54400		875.00000 
 43692.65567		 305.27265			43387.38302		69.64400		324.00000 
 43692.65567		 949.71062			42742.94505		229.54400		875.00000 
 43692.65567		 305.27265			43387.38302		69.64400		324.00000 
 43692.65567		 949.71062			42742.94505		229.54400		875.00000 
 43692.65567		 305.27265			43387.38302		69.64400		324.00000 
 43692.65567		 949.71062			42742.94505		229.54400		875.00000 
 43692.65567		 305.27265			43387.38302		69.64400		324.00000 
 43692.65567		 949.71062			42742.94505		229.54400		875.00000 
 43692.65567		 305.27265			43387.38302		69.64400		324.00000 
 43692.65567		 949.71062			42742.94505		229.54400		875.00000 
 43692.65567		 305.27265			43387.38302		69.64400		324.00000 
 43692.65567		 949.71062			42742.94505		229.54400		875.00000 
 43692.65567		 305.27265			43387.38302		69.64400		324.00000 
 43692.65567		 949.71062			42742.94505		229.54400		875.00000 
 43692.65567		 305.27265			43387.38302		69.64400		324.00000 
 43692.65567		 949.71062			42742.94505		229.54400		875.00000 
 43692.65567		 305.27265			43387.38302		69.64400		324.00000 
 43692.65567		 949.71062			42742.94505		229.54400		875.00000 
 43692.65567		 305.27265			43387.38302		69.64400		324.00000 
 43692.65567		 949.71062			42742.94505		229.54400		875.00000 
 43692.65567		 305.27265			43387.38302		69.64400		324.00000 
 43692.65567		 949.71062			42742.94505		229.54400		875.00000 
 43692.65567		 305.27265			43387.38302		69.64400		324.00000 
 43692.65567		 949.71062			42742.94505		229.54400		875.00000 
 43692.65567		 305.27265			43387.38302		69.64400		324.00000 
 43692.65567		 949.71062			42742.94505		229.54400		875.00000 
 43692.65567		 305.27265			43387.38302		69.64400		324.00000 
 43692.65567		 949.71062			42742.94505		229.54400		875.00000 
 43692.65567		 305.27265			43387.38302		69.64400		324.00000 
 43692.65567		 949.71062			42742.94505		229.54400		875.00000 
 43692.65567		 305.27265			43387.38302		69.64400		324.00000 
 43692.65567		 949.71062			42742.94505		229.54400		875.00000 
 43692.65567		 305.27265			43387.38302		69.64400		324.00000 
 43692.65567		 949.71062			42742.94505		229.54400		875.00000 
 43692.65567		 305.27265			43387.38302		69.64400		324.00000 
 43692.65567		 949.71062			42742.94505		229.54400		875.00000 
 43692.65567		 305.27265			43387.38302		69.64400		324.00000 
 43692.65567		 949.71062			42742.94505		229.54400		875.00000 
 43692.65567		 305.27265			43387.38302		69.64400		324.00000 
 43692.65567		 949.71062			42742.94505		229.54400		875.00000 
 43692.65567		 305.27265			43387.38302		69.64400		324.00000 
 43692.65567		 949.71062			42742.94505		229.54400		875.00000 
 43692.65567		 305.27265			43387.38302		69.64400		324.00000 
 43692.65567		 949.71062			42742.94505		229.54400		875.00000 
 43692.65567		 305.27265			43387.38302		69.64400		324.00000 
 43692.65567		 949.71062			42742.94505		229.54400		875.00000 
 43692.65567		 305.27265			43387.38302		69.64400		324.00000 
 43692.65567		 949.71062			42742.94505		229.54400		875.00000 
 43692.65567		 305.27265			43387.38302		69.64400		324.00000 
 43692.65567		 949.71062			42742.94505		229.54400		875.00000 
 43692.65567		 305.27265			43387.38302		69.64400		324.00000 
 43692.65567		 949.71062			42742.94505		229.54400		875.00000 
 43692.65567		 305.27265			43387.38302		69.64400		324.00000 
 43692.65567		 949.71062			42742.94505		229.54400		875.00000 
 43692.65567		 305.27265			43387.38302		69.64400		324.00000 
 43692.65567		 949.71062			42742.94505		229.54400		875.00000 
 43692.65567		 305.27265			43387.38302		69.64400		324.00000 
 43692.65567		 949.71062			42742.94505		229.54400		875.00000 
 43692.65567		 305.27265			43387.38302		69.64400		324.00000 
 43692.65567		 949.71062			42742.94505		229.54400		875.00000 
 43692.65567		 305.27265			43387.38302		69.64400		324.00000 
 43692.65567		 949.71062			42742.94505		229.54400		875.00000 
 43692.65567		 305.27265			43387.38302		69.64400		324.00000 
 43692.65567		 949.71062			42742.94505		229.54400		875.00000 
 43692.65567		 305.27265			43387.38302		69.64400		324.00000 
 43692.65567		 949.71062			42742.94505		229.54400		875.00000 
 43692.65567		 305.27265			43387.38302		69.64400		324.00000 
 43692.65567		 949.71062			42742.94505		229.54400		875.00000 
 43692.65567		 305.27265			43387.38302		69.64400		324.00000 
 43692.65567		 949.71062			42742.94505		229.54400		875.00000 
 43692.65567		 305.27265			43387.38302		69.64400		324.00000 
 43692.65567		 949.71062			42742.94505		229.54400		875.00000 
 43692.65567		 305.27265			43387.38302		69.64400		324.00000 
 43692.65567		 949.71062			42742.94505		229.54400		875.00000 
 43692.65567		 305.27265			43387.38302		69.64400		324.00000 
 43692.65567		 949.71062			42742.94505		229.54400		875.00000 
 43692.65567		 305.27265			43387.38302		69.64400		324.00000 
 43692.65567		 949.71062			42742.94505		229.54400		875.00000 
 43692.65567		 305.27265			43387.38302		69.64400		324.00000 
 43692.65567		 949.71062			42742.94505		229.54400		875.00000 
 43692.65567		 305.27265			43387.38302		69.64400		324.00000 
 43692.65567		 949.71062			42742.94505		229.54400		875.00000 
 43692.65567		 305.27265			43387.38302		69.64400		324.00000 
 43692.65567		 949.71062			42742.94505		229.54400		875.00000 
 43692.65567		 305.27265			43387.38302		69.64400		324.00000 
 43692.65567		 949.71062			42742.94505		229.54400		875.00000 
 43692.65567		 305.27265			43387.38302		69.64400		324.00000 
 43692.65567		 949.71062			42742.94505		229.54400		875.00000 
 43692.65567		 305.27265			43387.38302		69.64400		324.00000 
 43692.65567		 949.71062			42742.94505		229.54400		875.00000 
 43692.65567		 305.27265			43387.38302		69.64400		324.00000 
 43692.65567		 949.71062			42742.94505		229.54400		875.00000 
 43692.65567		 305.27265			43387.38302		69.64400		324.00000 
 43692.65567		 949.71062			42742.94505		229.54400		875.00000 
 43692.65567		 305.27265			43387.38302		69.64400		324.00000 
 43692.65567		 949.71062			42742.94505		229.54400		875.00000 
 43692.65567		 305.27265			43387.38302		69.64400		324.00000 
 43692.65567		 949.71062			42742.94505		229.54400		875.00000 
 43692.65567		 305.27265			43387.38302		69.64400		324.00000 
 43692.65567		 949.71062			42742.94505		229.54400		875.00000 
 43692.65567		 305.27265			43387.38302		69.64400		324.00000 
 43692.65567		 949.71062			42742.94505		229.54400		875.00000 
 43692.65567		 305.27265			43387.38302		69.64400		324.00000 
 43692.65567		 949.71062			42742.94505		229.54400		875.00000 
 43692.65567		 305.27265			43387.38302		69.64400		324.00000 
 43692.65567		 949.71062			42742.94505		229.54400		875.00000 
 43692.65567		 305.27265			43387.38302		69.64400		324.00000 
 43692.65567		 949.71062			42742.94505		229.54400		875.00000 
 43692.65567		 305.27265			43387.38302		69.64400		324.00000 
 43692.65567		 949.71062			42742.94505		229.54400		875.00000 
 43692.65567		 305.27265			43387.38302		69.64400		324.00000 
 43692.65567		 949.71062			42742.94505		229.54400		875.00000 
 43692.65567		 305.27265			43387.38302		69.64400		324.00000 
 43692.65567		 949.71062			42742.94505		229.54400		875.00000 
 43692.65567		 305.27265			43387.38302		69.64400		324.00000 
 43692.65567		 949.71062			42742.94505		229.54400		875.00000 
 43692.65567		 305.27265			43387.38302		69.64400		324.00000 
 43692.65567		 949.71062			42742.94505		229.54400		875.00000 
 43692.65567		 305.27265			43387.38302		69.64400		324.00000 
 43692.65567		 949.71062			42742.94505		229.54400		875.00000 
 43692.65567		 305.27265			43387.38302		70.72800		324.00000 
 43692.65567		 949.71062			42742.94505		229.54400		875.00000 
 43692.65567		 305.27265			43387.38302		70.72800		324.00000 
 43692.65567		 949.71062			42742.94505		229.54400		875.00000 
 43692.65567		 305.27265			43387.38302		70.72800		324.00000 
 43692.65567		 949.71062			42742.94505		229.54400		875.00000 
 43692.65567		 305.27265			43387.38302		70.72800		324.00000 
 43692.65567		 949.71062			42742.94505		229.54400		875.00000 
 43692.65567		 305.27265			43387.38302		70.72800		324.00000 
 43692.65567		 949.71062			42742.94505		229.54400		875.00000 
 43692.65567		 305.27265			43387.38302		70.72800		324.00000 
 43692.65567		 949.71062			42742.94505		229.54400		875.00000 
 43692.65567		 305.27265			43387.38302		70.72800		324.00000 
 43692.65567		 949.71062			42742.94505		229.54400		875.00000 
 43692.65567		 305.27265			43387.38302		70.72800		324.00000 
 43692.65567		 949.71062			42742.94505		229.54400		875.00000 
 43692.65567		 305.27265			43387.38302		70.72800		324.00000 
 43692.65567		 949.71062			42742.94505		229.54400		875.00000 
 43692.65567		 305.27265			43387.38302		70.72800		324.00000 
 43692.65567		 949.71062			42742.94505		229.54400		875.00000 
 43692.65567		 305.27265			43387.38302		70.72800		324.00000 
 43692.65567		 949.71062			42742.94505		229.54400		875.00000 
 43692.65567		 305.27265			43387.38302		70.72800		324.00000 
 43692.65567		 949.71062			42742.94505		229.54400		875.00000 
 43692.65567		 305.27265			43387.38302		70.72800		324.00000 
 43692.65567		 949.71062			42742.94505		229.54400		875.00000 
 43692.65567		 305.27265			43387.38302		70.72800		324.00000 
 43692.65567		 949.71062			42742.94505		229.54400		875.00000 
 43692.65567		 305.27265			43387.38302		70.72800		324.00000 
 43692.65567		 949.71062			42742.94505		229.54400		875.00000 
 43692.65567		 305.27265			43387.38302		70.72800		324.00000 
 43692.65567		 949.71062			42742.94505		229.54400		875.00000 
 43692.65567		 305.27265			43387.38302		70.72800		324.00000 
 43692.65567		 949.71062			42742.94505		229.54400		875.00000 
 43692.65567		 305.27265			43387.38302		70.72800		324.00000 
 43692.65567		 949.71062			42742.94505		229.54400		875.00000 
 43692.65567		 305.27265			43387.38302		70.72800		324.00000 
 43692.65567		 949.71062			42742.94505		229.54400		875.00000 
 43692.65567		 305.27265			43387.38302		70.72800		324.00000 
 43692.65567		 949.71062			42742.94505		229.54400		875.00000 
 43692.65567		 305.27265			43387.38302		70.72800		324.00000 
 43692.65567		 949.71062			42742.94505		229.54400		875.00000 
 43692.65567		 305.27265			43387.38302		70.72800		324.00000 
 43692.65567		 949.71062			42742.94505		229.54400		875.00000 
 43692.65567		 305.27265			43387.38302		70.72800		324.00000 
 43692.65567		 949.71062			42742.94505		229.54400		875.00000 
 43692.65567		 305.27265			43387.38302		70.72800		324.00000 
 43692.65567		 949.71062			42742.94505		229.54400		875.00000 
 43692.65567		 305.27265			43387.38302		70.72800		324.00000 
 43692.65567		 949.71062			42742.94505		229.54400		875.00000 
 43692.65567		 305.27265			43387.38302		70.72800		324.00000 
 43692.65567		 949.71062			42742.94505		229.54400		875.00000 
 43692.65567		 305.27265			43387.38302		70.72800		324.00000 
 43692.65567		 949.71062			42742.94505		229.54400		875.00000 
 43692.65567		 305.27265			43387.38302		70.72800		324.00000 
 43692.65567		 949.71062			42742.94505		229.54400		875.00000 
 43692.65567		 305.27265			43387.38302		70.72800		324.00000 
 43692.65567		 949.71062			42742.94505		229.54400		875.00000 
 43692.65567		 305.27265			43387.38302		70.72800		324.00000 
 43692.65567		 949.71062			42742.94505		229.54400		875.00000 
 43692.65567		 305.27265			43387.38302		70.72800		324.00000 
 43692.65567		 949.71062			42742.94505		229.54400		875.00000 
 43692.65567		 305.27265			43387.38302		70.72800		324.00000 
 43692.65567		 949.71062			42742.94505		229.54400		875.00000 
 43692.65567		 305.27265			43387.38302		70.72800		324.00000 
 43692.65567		 949.71062			42742.94505		229.54400		875.00000 
 43692.65567		 305.27265			43387.38302		70.72800		324.00000 
 43692.65567		 949.71062			42742.94505		229.54400		875.00000 
 43692.65567		 305.27265			43387.38302		70.72800		324.00000 
 43692.65567		 949.71062			42742.94505		229.54400		875.00000 
 43692.65567		 305.27265			43387.38302		70.72800		324.00000 
 43692.65567		 949.71062			42742.94505		229.54400		875.00000 
 43692.65567		 305.27265			43387.38302		70.72800		324.00000 
 43692.65567		 949.71062			42742.94505		229.54400		875.00000 
 43692.65567		 305.27265			43387.38302		70.72800		324.00000 
 43692.65567		 949.71062			42742.94505		229.54400		875.00000 
 43692.65567		 305.27265			43387.38302		70.72800		324.00000 
 43692.65567		 949.71062			42742.94505		229.54400		875.00000 
 43692.65567		 305.27265			43387.38302		70.72800		324.00000 
 43692.65567		 949.71062			42742.94505		229.54400		875.00000 
 43692.65567		 305.27265			43387.38302		70.72800		324.00000 
 43692.65567		 949.71062			42742.94505		229.54400		875.00000 
 43692.65567		 305.27265			43387.38302		70.72800		324.00000 
 43692.65567		 949.71062			42742.94505		229.54400		875.00000 
 43692.65567		 305.27265			43387.38302		70.72800		324.00000 
 43692.65567		 949.71062			42742.94505		229.54400		875.00000 
 43692.65567		 305.27265			43387.38302		70.72800		324.00000 
 43692.65567		 949.71062			42742.94505		229.54400		875.00000 
 43692.65567		 305.27265			43387.38302		70.72800		324.00000 
 43692.65567		 949.71062			42742.94505		229.54400		875.00000 
 43692.65567		 305.27265			43387.38302		70.72800		324.00000 
 43692.65567		 949.71062			42742.94505		229.54400		875.00000 
 43692.65567		 305.27265			43387.38302		70.72800		324.00000 
 43692.65567		 949.71062			42742.94505		229.54400		875.00000 
 43692.65567		 305.27265			43387.38302		70.72800		324.00000 
 43692.65567		 949.71062			42742.94505		229.54400		875.00000 
 43692.65567		 305.27265			43387.38302		70.72800		324.00000 
 43692.65567		 949.71062			42742.94505		229.54400		875.00000 
 43692.65567		 305.27265			43387.38302		70.72800		324.00000 
 43692.65567		 949.71062			42742.94505		229.54400		875.00000 
 43692.65567		 305.27265			43387.38302		70.72800		324.00000 
 43692.65567		 949.71062			42742.94505		229.54400		875.00000 
 43692.65567		 305.27265			43387.38302		70.72800		324.00000 
 43692.65567		 949.71062			42742.94505		229.54400		875.00000 
 43692.65567		 305.27265			43387.38302		70.72800		324.00000 
 43692.65567		 949.71062			42742.94505		229.54400		875.00000 
 43692.65567		 305.27265			43387.38302		70.72800		324.00000 
 43692.65567		 949.71062			42742.94505		229.54400		875.00000 
 43692.65567		 305.27265			43387.38302		70.72800		324.00000 
 43692.65567		 949.71062			42742.94505		229.54400		875.00000 
 43692.65567		 305.27265			43387.38302		70.72800		324.00000 
 43692.65567		 949.71062			42742.94505		229.54400		875.00000 
 43692.65567		 305.27265			43387.38302		70.72800		324.00000 
 43692.65567		 949.71062			42742.94505		229.54400		875.00000 
 43692.65567		 305.27265			43387.38302		70.72800		324.00000 
 43692.65567		 949.71062			42742.94505		229.54400		875.00000 
 43692.65567		 305.27265			43387.38302		70.72800		324.00000 
 43692.65567		 949.71062			42742.94505		229.54400		875.00000 
 43692.65567		 305.27265			43387.38302		70.72800		324.00000 
 43692.65567		 949.71062			42742.94505		229.54400		875.00000 
 43692.65567		 305.27265			43387.38302		70.72800		324.00000 
 43692.65567		 949.71062			42742.94505		229.54400		875.00000 
 43692.65567		 305.27265			43387.38302		70.72800		324.00000 
 43692.65567		 949.71062			42742.94505		229.54400		875.00000 
 43692.65567		 305.27265			43387.38302		70.72800		324.00000 
 43692.65567		 949.71062			42742.94505		229.54400		875.00000 
 43692.65567		 305.27265			43387.38302		70.72800		324.00000 
 43692.65567		 949.71062			42742.94505		229.54400		875.00000 
 43692.65567		 305.27265			43387.38302		70.72800		324.00000 
 43692.65567		 949.71062			42742.94505		229.54400		875.00000 
 43692.65567		 305.27265			43387.38302		70.72800		324.00000 
 43692.65567		 949.71062			42742.94505		229.54400		875.00000 
 43692.65567		 305.27265			43387.38302		70.72800		324.00000 
 43692.65567		 949.71062			42742.94505		229.54400		875.00000 
 43692.65567		 305.27265			43387.38302		70.72800		324.00000 
 43692.65567		 949.71062			42742.94505		229.54400		875.00000 
 43692.65567		 305.27265			43387.38302		70.72800		324.00000 
 43692.65567		 949.71062			42742.94505		229.54400		875.00000 
 43692.65567		 305.27265			43387.38302		70.72800		324.00000 
 43692.65567		 949.71062			42742.94505		229.54400		875.00000 
 43692.65567		 305.27265			43387.38302		70.72800		324.00000 
 43692.65567		 949.71062			42742.94505		229.54400		875.00000 
 43692.65567		 305.27265			43387.38302		70.72800		324.00000 
 43692.65567		 949.71062			42742.94505		229.54400		875.00000 
 43692.65567		 305.27265			43387.38302		70.72800		324.00000 
 43692.65567		 949.71062			42742.94505		229.54400		875.00000 
 43692.65567		 305.27265			43387.38302		70.72800		324.00000 
 43692.65567		 949.71062			42742.94505		229.54400		875.00000 
 43692.65567		 305.27265			43387.38302		70.72800		324.00000 
 43692.65567		 949.71062			42742.94505		229.54400		875.00000 
 43692.65567		 305.27265			43387.38302		70.72800		324.00000 
 43692.65567		 949.71062			42742.94505		229.54400		875.00000 
 43692.65567		 305.27265			43387.38302		70.72800		324.00000 
 43692.65567		 949.71062			42742.94505		229.54400		875.00000 
 43692.65567		 305.27265			43387.38302		70.72800		324.00000 
 43692.65567		 949.71062			42742.94505		229.54400		875.00000 
 43692.65567		 305.27265			43387.38302		70.72800		324.00000 
 43692.65567		 949.71062			42742.94505		229.54400		875.00000 
 43692.65567		 305.27265			43387.38302		70.72800		324.00000 
 43692.65567		 949.71062			42742.94505		229.54400		875.00000 
 43692.65567		 305.27265			43387.38302		70.72800		324.00000 
 43692.65567		 949.71062			42742.94505		229.54400		875.00000 
 43692.65567		 305.27265			43387.38302		70.72800		324.00000 
 43692.65567		 949.71062			42742.94505		229.54400		875.00000 
 43692.65567		 305.27265			43387.38302		70.72800		324.00000 
 43692.65567		 949.71062			42742.94505		229.54400		875.00000 
 43692.65567		 305.27265			43387.38302		70.72800		324.00000 
 43692.65567		 949.71062			42742.94505		229.54400		875.00000 
 43692.65567		 305.27265			43387.38302		70.72800		324.00000 
 43692.65567		 949.71062			42742.94505		229.54400		875.00000 
 43692.65567		 305.27265			43387.38302		70.72800		324.00000 
 43692.65567		 949.71062			42742.94505		229.54400		875.00000 
 43692.65567		 305.27265			43387.38302		70.72800		324.00000 
 43692.65567		 949.71062			42742.94505		229.54400		875.00000 
 43692.65567		 305.27265			43387.38302		70.72800		324.00000 
 43692.65567		 949.71062			42742.94505		229.54400		875.00000 
 43692.65567		 305.27265			43387.38302		70.72800		324.00000 
 43692.65567		 949.71062			42742.94505		229.54400		875.00000 
 43692.65567		 305.27265			43387.38302		70.72800		324.00000 
 43692.65567		 949.71062			42742.94505		229.54400		875.00000 
 43692.65567		 305.27265			43387.38302		70.72800		324.00000 
 43692.65567		 949.71062			42742.94505		229.54400		875.00000 
 43692.65567		 305.27265			43387.38302		70.72800		324.00000 
 43692.65567		 949.71062			42742.94505		229.54400		875.00000 
 43692.65567		 305.27265			43387.38302		70.72800		324.00000 
 43692.65567		 949.71062			42742.94505		229.54400		875.00000 
 43692.65567		 305.27265			43387.38302		70.72800		324.00000 
 43692.65567		 949.71062			42742.94505		229.54400		875.00000 
 43692.65567		 305.27265			43387.38302		70.72800		324.00000 
 43692.65567		 949.71062			42742.94505		229.54400		875.00000 
 43692.65567		 305.27265			43387.38302		70.72800		324.00000 
 43692.65567		 949.71062			42742.94505		229.54400		875.00000 
 43692.65567		 305.27265			43387.38302		70.72800		324.00000 
 43692.65567		 949.71062			42742.94505		229.54400		875.00000 
 43692.65567		 305.27265			43387.38302		70.72800		324.00000 
 43692.65567		 949.71062			42742.94505		229.54400		875.00000 
 43692.65567		 305.27265			43387.38302		70.72800		324.00000 
 43692.65567		 949.71062			42742.94505		229.54400		875.00000 
 43692.65567		 305.27265			43387.38302		70.72800		324.00000 
 43692.65567		 949.71062			42742.94505		229.54400		875.00000 
 43692.65567		 305.27265			43387.38302		70.72800		324.00000 
 43692.65567		 949.71062			42742.94505		229.54400		875.00000 
 43692.65567		 305.27265			43387.38302		70.72800		324.00000 
 43692.65567		 949.71062			42742.94505		229.54400		875.00000 
 43692.65567		 305.27265			43387.38302		70.72800		324.00000 
 43692.65567		 949.71062			42742.94505		229.54400		875.00000 
 43692.65567		 305.27265			43387.38302		70.72800		324.00000 
 43692.65567		 949.71062			42742.94505		229.54400		875.00000 
 43692.65567		 305.27265			43387.38302		70.72800		324.00000 
 43692.65567		 949.71062			42742.94505		229.54400		875.00000 
 43692.65567		 305.27265			43387.38302		70.72800		324.00000 
 43692.65567		 949.71062			42742.94505		229.54400		875.00000 
 43692.65567		 305.27265			43387.38302		70.72800		324.00000 
 43692.65567		 949.71062			42742.94505		229.54400		875.00000 
 43692.65567		 305.27265			43387.38302		70.72800		324.00000 
 43692.65567		 949.71062			42742.94505		229.54400		875.00000 
 43692.65567		 305.27265			43387.38302		70.72800		324.00000 
 43692.65567		 949.71062			42742.94505		229.54400		875.00000 
 43692.65567		 305.27265			43387.38302		70.72800		324.00000 
 43692.65567		 949.71062			42742.94505		229.54400		875.00000 
 43692.65567		 305.27265			43387.38302		70.72800		324.00000 
 43692.65567		 949.71062			42742.94505		229.54400		875.00000 
 43692.65567		 305.27265			43387.38302		70.72800		324.00000 
 43692.65567		 949.71062			42742.94505		229.54400		875.00000 
 43692.65567		 305.27265			43387.38302		70.72800		324.00000 
 43692.65567		 949.71062			42742.94505		229.54400		875.00000 
 43692.65567		 305.27265			43387.38302		70.72800		324.00000 
 43692.65567		 949.71062			42742.94505		229.54400		875.00000 
 43692.65567		 305.27265			43387.38302		70.72800		324.00000 
 43692.65567		 949.71062			42742.94505		229.54400		875.00000 
 43692.65567		 305.27265			43387.38302		70.72800		324.00000 
 43692.65567		 949.71062			42742.94505		229.54400		875.00000 
 43692.65567		 305.27265			43387.38302		70.72800		324.00000 
 43692.65567		 949.71062			42742.94505		229.54400		875.00000 
 43692.65567		 305.27265			43387.38302		70.72800		324.00000 
 43692.65567		 949.71062			42742.94505		229.54400		875.00000 
 43692.65567		 305.27265			43387.38302		70.72800		324.00000 
 43692.65567		 949.71062			42742.94505		229.54400		875.00000 
 43692.65567		 305.27265			43387.38302		70.72800		324.00000 
 43692.65567		 949.71062			42742.94505		229.54400		875.00000 
 43692.65567		 305.27265			43387.38302		70.72800		324.00000 
 43692.65567		 949.71062			42742.94505		229.54400		875.00000 
 43692.65567		 305.27265			43387.38302		70.72800		324.00000 
 43692.65567		 949.71062			42742.94505		229.54400		875.00000 
 43692.65567		 305.27265			43387.38302		70.72800		324.00000 
 43692.65567		 949.71062			42742.94505		229.54400		875.00000 
 43692.65567		 305.27265			43387.38302		70.72800		324.00000 
 43692.65567		 949.71062			42742.94505		229.54400		875.00000 
 43692.65567		 305.27265			43387.38302		70.72800		324.00000 
 43692.65567		 949.71062			42742.94505		229.54400		875.00000 
 43692.65567		 305.27265			43387.38302		70.72800		324.00000 
 43692.65567		 949.71062			42742.94505		229.54400		875.00000 
 43692.65567		 305.27265			43387.38302		70.72800		324.00000 
 43692.65567		 949.71062			42742.94505		229.54400		875.00000 
 43692.65567		 305.27265			43387.38302		70.72800		324.00000 
 43692.65567		 949.71062			42742.94505		229.54400		875.00000 
 43692.65567		 305.27265			43387.38302		70.72800		324.00000 
 43692.65567		 949.71062			42742.94505		229.54400		875.00000 
 43692.65567		 305.27265			43387.38302		70.72800		324.00000 
 43692.65567		 949.71062			42742.94505		229.54400		875.00000 
 43692.65567		 305.27265			43387.38302		70.72800		324.00000 
 43692.65567		 949.71062			42742.94505		229.54400		875.00000 
 43692.65567		 305.27265			43387.38302		70.72800		324.00000 
 43692.65567		 949.71062			42742.94505		229.54400		875.00000 
 43692.65567		 305.27265			43387.38302		70.72800		324.00000 
 43692.65567		 949.71062			42742.94505		229.54400		875.00000 
 43692.65567		 305.27265			43387.38302		70.72800		324.00000 
 43692.65567		 949.71062			42742.94505		229.54400		875.00000 
 43692.65567		 305.27265			43387.38302		70.72800		324.00000 
 43692.65567		 949.71062			42742.94505		229.54400		875.00000 
 43692.65567		 305.27265			43387.38302		70.72800		324.00000 
 43692.65567		 949.71062			42742.94505		229.54400		875.00000 
 43692.65567		 305.27265			43387.38302		70.72800		324.00000 
 43692.65567		 949.71062			42742.94505		229.54400		875.00000 
 43692.65567		 305.27265			43387.38302		70.72800		324.00000 
 43692.65567		 949.71062			42742.94505		229.54400		875.00000 
 43692.65567		 305.27265			43387.38302		70.72800		324.00000 
 43692.65567		 949.71062			42742.94505		229.54400		875.00000 
 43692.65567		 305.27265			43387.38302		70.72800		324.00000 
 43692.65567		 949.71062			42742.94505		229.54400		875.00000 
 43692.65567		 305.27265			43387.38302		70.72800		324.00000 
 43692.65567		 949.71062			42742.94505		229.54400		875.00000 
 43692.65567		 305.27265			43387.38302		70.72800		324.00000 
 43692.65567		 949.71062			42742.94505		229.54400		875.00000 
 43692.65567		 305.27265			43387.38302		70.72800		324.00000 
 43692.65567		 949.71062			42742.94505		229.54400		875.00000 
 43692.65567		 305.27265			43387.38302		70.72800		324.00000 
 43692.65567		 949.71062			42742.94505		229.54400		875.00000 
 43692.65567		 305.27265			43387.38302		70.72800		324.00000 
 43692.65567		 949.71062			42742.94505		229.54400		875.00000 
 43692.65567		 305.27265			43387.38302		70.72800		324.00000 
 43692.65567		 949.71062			42742.94505		229.54400		875.00000 
 43692.65567		 305.27265			43387.38302		70.72800		324.00000 
 43692.65567		 949.71062			42742.94505		229.54400		875.00000 
 43692.65567		 305.27265			43387.38302		70.72800		324.00000 
 43692.65567		 949.71062			42742.94505		229.54400		875.00000 
 43692.65567		 305.27265			43387.38302		70.72800		324.00000 
 43692.65567		 949.71062			42742.94505		229.54400		875.00000 
 43692.65567		 305.27265			43387.38302		70.72800		324.00000 
 43692.65567		 949.71062			42742.94505		229.54400		875.00000 
 43692.65567		 305.27265			43387.38302		70.72800		324.00000 
 43692.65567		 949.71062			42742.94505		229.54400		875.00000 
 43692.65567		 305.27265			43387.38302		70.72800		324.00000 
 43692.65567		 949.71062			42742.94505		229.54400		875.00000 
 43692.65567		 305.27265			43387.38302		70.72800		324.00000 
 43692.65567		 949.71062			42742.94505		229.54400		875.00000 
 43692.65567		 305.27265			43387.38302		70.72800		324.00000 
 43692.65567		 949.71062			42742.94505		229.54400		875.00000 
 43692.65567		 305.27265			43387.38302		70.72800		324.00000 
 43692.65567		 949.71062			42742.94505		229.54400		875.00000 
 43692.65567		 305.27265			43387.38302		70.72800		324.00000 
 43692.65567		 949.71062			42742.94505		229.54400		875.00000 
 43692.65567		 305.27265			43387.38302		70.72800		324.00000 
 43692.65567		 949.71062			42742.94505		229.54400		875.00000 
 43692.65567		 305.27265			43387.38302		70.72800		324.00000 
 43692.65567		 949.71062			42742.94505		229.54400		875.00000 
 43692.65567		 305.27265			43387.38302		70.72800		324.00000 
 43692.65567		 949.71062			42742.94505		229.54400		875.00000 
 43692.65567		 305.27265			43387.38302		70.72800		324.00000 
 43692.65567		 949.71062			42742.94505		229.54400		875.00000 
 43692.65567		 305.27265			43387.38302		70.72800		324.00000 
 43692.65567		 949.71062			42742.94505		229.54400		875.00000 
 43692.65567		 305.27265			43387.38302		70.72800		324.00000 
 43692.65567		 949.71062			42742.94505		229.54400		875.00000 
 43692.65567		 305.27265			43387.38302		70.72800		324.00000 
 43692.65567		 949.71062			42742.94505		229.54400		875.00000 
 43692.65567		 305.27265			43387.38302		70.72800		324.00000 
 43692.65567		 949.71062			42742.94505		229.54400		875.00000 
 43692.65567		 305.27265			43387.38302		70.72800		324.00000 
 43692.65567		 949.71062			42742.94505		229.54400		875.00000 
 43692.65567		 305.27265			43387.38302		70.72800		324.00000 
 43692.65567		 949.71062			42742.94505		229.54400		875.00000 
 43692.65567		 305.27265			43387.38302		70.72800		324.00000 
 43692.65567		 949.71062			42742.94505		229.54400		875.00000 
 43692.65567		 305.27265			43387.38302		70.72800		324.00000 
 43692.65567		 949.71062			42742.94505		229.54400		875.00000 
 43692.65567		 305.27265			43387.38302		70.72800		324.00000 
 43692.65567		 949.71062			42742.94505		229.54400		875.00000 
 43692.65567		 305.27265			43387.38302		70.72800		324.00000 
 43692.65567		 949.71062			42742.94505		229.54400		875.00000 
 43692.65567		 305.27265			43387.38302		70.72800		324.00000 
 43692.65567		 949.71062			42742.94505		229.54400		875.00000 
 43692.65567		 305.27265			43387.38302		70.72800		324.00000 
 43692.65567		 949.71062			42742.94505		229.54400		875.00000 
 43692.65567		 305.27265			43387.38302		70.72800		324.00000 
 43692.65567		 949.71062			42742.94505		229.54400		875.00000 
 43692.65567		 305.27265			43387.38302		70.72800		324.00000 
 43692.65567		 949.71062			42742.94505		229.54400		875.00000 
 43692.65567		 305.27265			43387.38302		70.72800		324.00000 
 43692.65567		 949.71062			42742.94505		229.54400		875.00000 
 43692.65567		 305.27265			43387.38302		70.72800		324.00000 
 43692.65567		 949.71062			42742.94505		229.54400		875.00000 
 43692.65567		 305.27265			43387.38302		70.72800		324.00000 
 43692.65567		 949.71062			42742.94505		229.54400		875.00000 
 43692.65567		 305.27265			43387.38302		70.72800		324.00000 
 43692.65567		 949.71062			42742.94505		229.54400		875.00000 
 43692.65567		 305.27265			43387.38302		70.72800		324.00000 
 43692.65567		 949.71062			42742.94505		229.54400		875.00000 
 43692.65567		 305.27265			43387.38302		70.72800		324.00000 
 43692.65567		 949.71062			42742.94505		229.54400		875.00000 
 43692.65567		 305.27265			43387.38302		70.72800		324.00000 
 43692.65567		 949.71062			42742.94505		229.54400		875.00000 
 43692.65567		 305.27265			43387.38302		70.72800		324.00000 
 43692.65567		 949.71062			42742.94505		229.54400		875.00000 
 43692.65567		 305.27265			43387.38302		70.72800		324.00000 
 43692.65567		 949.71062			42742.94505		229.54400		875.00000 
 43692.65567		 305.27265			43387.38302		70.72800		324.00000 
 43692.65567		 949.71062			42742.94505		229.54400		875.00000 
 43692.65567		 305.27265			43387.38302		70.72800		324.00000 
 43692.65567		 949.71062			42742.94505		229.54400		875.00000 
 43692.65567		 305.27265			43387.38302		70.72800		324.00000 
 43692.65567		 949.71062			42742.94505		229.54400		875.00000 
 43692.65567		 305.27265			43387.38302		70.72800		324.00000 
 43692.65567		 949.71062			42742.94505		229.54400		875.00000 
 43692.65567		 305.27265			43387.38302		70.72800		324.00000 
 43692.65567		 949.71062			42742.94505		229.54400		875.00000 
 43692.65567		 305.27265			43387.38302		70.72800		324.00000 
 43692.65567		 949.71062			42742.94505		229.54400		875.00000 
 43692.65567		 305.27265			43387.38302		70.72800		324.00000 
 43692.65567		 949.71062			42742.94505		229.54400		875.00000 
 43692.65567		 305.27265			43387.38302		70.72800		324.00000 
 43692.65567		 949.71062			42742.94505		229.54400		875.00000 
 43692.65567		 305.27265			43387.38302		70.72800		324.00000 
 43692.65567		 949.71062			42742.94505		229.54400		875.00000 
 43692.65567		 305.27265			43387.38302		70.72800		324.00000 
 43692.65567		 949.71062			42742.94505		229.54400		875.00000 
 43692.65567		 305.27265			43387.38302		70.72800		324.00000 
 43692.65567		 949.71062			42742.94505		229.54400		875.00000 
 43692.65567		 305.27265			43387.38302		70.72800		324.00000 
 43692.65567		 949.71062			42742.94505		229.54400		875.00000 
 43692.65567		 305.27265			43387.38302		70.72800		324.00000 
 43692.65567		 949.71062			42742.94505		229.54400		875.00000 
 43692.65567		 305.27265			43387.38302		70.72800		324.00000 
 43692.65567		 949.71062			42742.94505		229.54400		875.00000 
 43692.65567		 305.27265			43387.38302		70.72800		324.00000 
 43692.65567		 949.71062			42742.94505		229.54400		875.00000 
 43692.65567		 305.27265			43387.38302		70.72800		324.00000 
 43692.65567		 949.71062			42742.94505		229.54400		875.00000 
 43692.65567		 305.27265			43387.38302		70.72800		324.00000 
 43692.65567		 949.71062			42742.94505		229.54400		875.00000 
 43692.65567		 305.27265			43387.38302		70.72800		324.00000 
 43692.65567		 949.71062			42742.94505		229.54400		875.00000 
 43692.65567		 305.27265			43387.38302		70.72800		324.00000 
 43692.65567		 949.71062			42742.94505		229.54400		875.00000 
 43692.65567		 305.27265			43387.38302		70.72800		324.00000 
 43692.65567		 949.71062			42742.94505		229.54400		875.00000 
 43692.65567		 305.27265			43387.38302		70.72800		324.00000 
 43692.65567		 949.71062			42742.94505		229.54400		875.00000 
 43692.65567		 305.27265			43387.38302		70.72800		324.00000 
 43692.65567		 949.71062			42742.94505		229.54400		875.00000 
 43692.65567		 305.27265			43387.38302		70.72800		324.00000 
 43692.65567		 949.71062			42742.94505		229.54400		875.00000 
 43692.65567		 305.27265			43387.38302		70.72800		324.00000 
 43692.65567		 949.71062			42742.94505		229.54400		875.00000 
 43692.65567		 305.27265			43387.38302		70.72800		324.00000 
 43692.65567		 949.71062			42742.94505		229.54400		875.00000 
 43692.65567		 305.27265			43387.38302		70.72800		324.00000 
 43692.65567		 949.71062			42742.94505		229.54400		875.00000 
 43692.65567		 305.27265			43387.38302		70.72800		324.00000 
 43692.65567		 949.71062			42742.94505		229.54400		875.00000 
 43692.65567		 305.27265			43387.38302		70.72800		324.00000 
 43692.65567		 949.71062			42742.94505		229.54400		875.00000 
 43692.65567		 305.27265			43387.38302		70.72800		324.00000 
 43692.65567		 949.71062			42742.94505		229.54400		875.00000 
 43692.65567		 305.27265			43387.38302		70.72800		324.00000 
 43692.65567		 949.71062			42742.94505		229.54400		875.00000 
 43692.65567		 305.27265			43387.38302		70.72800		324.00000 
 43692.65567		 949.71062			42742.94505		229.54400		875.00000 
 43692.65567		 305.27265			43387.38302		70.72800		324.00000 
 43692.65567		 949.71062			42742.94505		229.54400		875.00000 
 43692.65567		 305.27265			43387.38302		70.72800		324.00000 
 43692.65567		 949.71062			42742.94505		229.54400		875.00000 
 43692.65567		 305.27265			43387.38302		70.72800		324.00000 
 43692.65567		 949.71062			42742.94505		229.54400		875.00000 
 43692.65567		 305.27265			43387.38302		70.72800		324.00000 
 43692.65567		 949.71062			42742.94505		229.54400		875.00000 
 43692.65567		 305.27265			43387.38302		70.72800		324.00000 
 43692.65567		 949.71062			42742.94505		229.54400		875.00000 
 43692.65567		 305.27265			43387.38302		70.72800		324.00000 
 43692.65567		 949.71062			42742.94505		229.54400		875.00000 
 43692.65567		 305.27265			43387.38302		70.72800		324.00000 
 43692.65567		 949.71062			42742.94505		229.54400		875.00000 
 43692.65567		 305.27265			43387.38302		70.72800		324.00000 
 43692.65567		 949.71062			42742.94505		229.54400		875.00000 
 43692.65567		 305.27265			43387.38302		70.72800		324.00000 
 43692.65567		 949.71062			42742.94505		229.54400		875.00000 
 43692.65567		 305.27265			43387.38302		70.72800		324.00000 
 43692.65567		 949.71062			42742.94505		229.54400		875.00000 
 43692.65567		 305.27265			43387.38302		70.72800		324.00000 
 43692.65567		 949.71062			42742.94505		229.54400		875.00000 
 43692.65567		 305.27265			43387.38302		70.72800		324.00000 
 43692.65567		 949.71062			42742.94505		229.54400		875.00000 
 43692.65567		 305.27265			43387.38302		70.72800		324.00000 
 43692.65567		 949.71062			42742.94505		229.54400		875.00000 
 43692.65567		 305.27265			43387.38302		70.72800		324.00000 
 43692.65567		 949.71062			42742.94505		229.54400		875.00000 
 43692.65567		 305.27265			43387.38302		70.72800		324.00000 
 43692.65567		 949.71062			42742.94505		229.54400		875.00000 
 43692.65567		 305.27265			43387.38302		70.72800		324.00000 
 43692.65567		 949.71062			42742.94505		229.54400		875.00000 
 43692.65567		 305.27265			43387.38302		70.72800		324.00000 
 43692.65567		 949.71062			42742.94505		229.54400		875.00000 
 43692.65567		 305.27265			43387.38302		70.72800		324.00000 
 43692.65567		 949.71062			42742.94505		229.54400		875.00000 
 43692.65567		 305.27265			43387.38302		70.72800		324.00000 
 43692.65567		 949.71062			42742.94505		229.54400		875.00000 
 43692.65567		 305.27265			43387.38302		70.72800		324.00000 
 43692.65567		 949.71062			42742.94505		229.54400		875.00000 
 43692.65567		 305.27265			43387.38302		70.72800		324.00000 
 43692.65567		 949.71062			42742.94505		229.54400		875.00000 
 43692.65567		 305.27265			43387.38302		70.72800		324.00000 
 43692.65567		 949.71062			42742.94505		229.54400		875.00000 
 43692.65567		 305.27265			43387.38302		70.72800		324.00000 
 43692.65567		 949.71062			42742.94505		229.54400		875.00000 
 43692.65567		 305.27265			43387.38302		70.72800		324.00000 
 43692.65567		 949.71062			42742.94505		229.54400		875.00000 
 43692.65567		 305.27265			43387.38302		70.72800		324.00000 
 43692.65567		 949.71062			42742.94505		229.54400		875.00000 
 43692.65567		 305.27265			43387.38302		70.72800		324.00000 
 43692.65567		 949.71062			42742.94505		229.54400		875.00000 
 43692.65567		 305.27265			43387.38302		70.72800		324.00000 
 43692.65567		 949.71062			42742.94505		229.54400		875.00000 
 43692.65567		 305.27265			43387.38302		70.72800		324.00000 
 43692.65567		 949.71062			42742.94505		229.54400		875.00000 
 43692.65567		 305.27265			43387.38302		70.72800		324.00000 
 43692.65567		 949.71062			42742.94505		229.54400		875.00000 
 43692.65567		 305.27265			43387.38302		70.72800		324.00000 
 43692.65567		 949.71062			42742.94505		229.54400		875.00000 
 43692.65567		 305.27265			43387.38302		70.72800		324.00000 
 43692.65567		 949.71062			42742.94505		229.54400		875.00000 
 43692.65567		 305.27265			43387.38302		70.72800		324.00000 
 43692.65567		 949.71062			42742.94505		229.54400		875.00000 
 43692.65567		 305.27265			43387.38302		70.72800		324.00000 
 43692.65567		 949.71062			42742.94505		229.54400		875.00000 
 43692.65567		 305.27265			43387.38302		70.72800		324.00000 
 43692.65567		 949.71062			42742.94505		229.54400		875.00000 
 43692.65567		 305.27265			43387.38302		70.72800		324.00000 
 43692.65567		 949.71062			42742.94505		229.54400		875.00000 
 43692.65567		 305.27265			43387.38302		70.72800		324.00000 
 43692.65567		 949.71062			42742.94505		229.54400		875.00000 
 43692.65567		 305.27265			43387.38302		70.72800		324.00000 
 43692.65567		 949.71062			42742.94505		229.54400		875.00000 
 43692.65567		 305.27265			43387.38302		70.72800		324.00000 
 43692.65567		 949.71062			42742.94505		229.54400		875.00000 
 43692.65567		 305.27265			43387.38302		70.72800		324.00000 
 43692.65567		 949.71062			42742.94505		229.54400		875.00000 
 43692.65567		 305.27265			43387.38302		70.72800		324.00000 
 43692.65567		 949.71062			42742.94505		229.54400		875.00000 
 43692.65567		 305.27265			43387.38302		70.72800		324.00000 
 43692.65567		 949.71062			42742.94505		229.54400		875.00000 
 43692.65567		 305.27265			43387.38302		70.72800		324.00000 
 43692.65567		 949.71062			42742.94505		229.54400		875.00000 
 43692.65567		 305.27265			43387.38302		70.72800		324.00000 
 43692.65567		 949.71062			42742.94505		229.54400		875.00000 
 43692.65567		 305.27265			43387.38302		70.72800		324.00000 
 43692.65567		 949.71062			42742.94505		228.94600		875.00000 
 43692.65567		 305.27265			43387.38302		70.72800		324.00000 
 43692.65567		 949.71062			42742.94505		228.94600		875.00000 
 43692.65567		 305.27265			43387.38302		70.72800		324.00000 
 43692.65567		 949.71062			42742.94505		228.94600		875.00000 
 43692.65567		 305.27265			43387.38302		70.72800		324.00000 
 43692.65567		 949.71062			42742.94505		228.94600		875.00000 
 43692.65567		 305.27265			43387.38302		70.72800		324.00000 
 43692.65567		 949.71062			42742.94505		228.94600		875.00000 
 43692.65567		 305.27265			43387.38302		70.72800		324.00000 
 43692.65567		 949.71062			42742.94505		228.94600		875.00000 
 43692.65567		 305.27265			43387.38302		70.72800		324.00000 
 43692.65567		 949.71062			42742.94505		228.94600		875.00000 
 43692.65567		 305.27265			43387.38302		70.72800		324.00000 
 43692.65567		 949.71062			42742.94505		228.94600		875.00000 
 43692.65567		 305.27265			43387.38302		70.72800		324.00000 
 43692.65567		 949.71062			42742.94505		228.94600		875.00000 
 43692.65567		 305.27265			43387.38302		70.72800		324.00000 
 43692.65567		 949.71062			42742.94505		228.94600		875.00000 
 43692.65567		 305.27265			43387.38302		70.72800		324.00000 
 43692.65567		 949.71062			42742.94505		228.94600		875.00000 
 43692.65567		 305.27265			43387.38302		70.72800		324.00000 
 43692.65567		 949.71062			42742.94505		228.94600		875.00000 
 43692.65567		 305.27265			43387.38302		70.72800		324.00000 
 43692.65567		 949.71062			42742.94505		228.94600		875.00000 
 43692.65567		 305.27265			43387.38302		70.72800		324.00000 
 43692.65567		 949.71062			42742.94505		228.94600		875.00000 
 43692.65567		 305.27265			43387.38302		70.72800		324.00000 
 43692.65567		 949.71062			42742.94505		228.94600		875.00000 
 43692.65567		 305.27265			43387.38302		70.72800		324.00000 
 43692.65567		 949.71062			42742.94505		228.94600		875.00000 
 43692.65567		 305.27265			43387.38302		70.72800		324.00000 
 43692.65567		 949.71062			42742.94505		228.94600		875.00000 
 43692.65567		 305.27265			43387.38302		70.72800		324.00000 
 43692.65567		 949.71062			42742.94505		228.94600		875.00000 
 43692.65567		 305.27265			43387.38302		70.72800		324.00000 
 43692.65567		 949.71062			42742.94505		228.94600		875.00000 
 43692.65567		 305.27265			43387.38302		70.72800		324.00000 
 43692.65567		 949.71062			42742.94505		228.94600		875.00000 
 43692.65567		 305.27265			43387.38302		70.72800		324.00000 
 43692.65567		 949.71062			42742.94505		228.94600		875.00000 
 43692.65567		 305.27265			43387.38302		70.72800		324.00000 
 43692.65567		 949.71062			42742.94505		228.94600		875.00000 
 43692.65567		 305.27265			43387.38302		70.72800		324.00000 
 43692.65567		 949.71062			42742.94505		228.94600		875.00000 
 43692.65567		 305.27265			43387.38302		70.72800		324.00000 
 43692.65567		 949.71062			42742.94505		228.94600		875.00000 
 43692.65567		 305.27265			43387.38302		70.72800		324.00000 
 43692.65567		 949.71062			42742.94505		228.94600		875.00000 
 43692.65567		 305.27265			43387.38302		70.72800		324.00000 
 43692.65567		 949.71062			42742.94505		228.94600		875.00000 
 43692.65567		 305.27265			43387.38302		70.72800		324.00000 
 43692.65567		 949.71062			42742.94505		228.94600		875.00000 
 43692.65567		 305.27265			43387.38302		70.72800		324.00000 
 43692.65567		 949.71062			42742.94505		228.94600		875.00000 
 43692.65567		 305.27265			43387.38302		70.72800		324.00000 
 43692.65567		 949.71062			42742.94505		228.94600		875.00000 
 43692.65567		 305.27265			43387.38302		70.72800		324.00000 
 43692.65567		 949.71062			42742.94505		228.94600		875.00000 
 43692.65567		 305.27265			43387.38302		70.72800		324.00000 
 43692.65567		 949.71062			42742.94505		228.94600		875.00000 
 43692.65567		 305.27265			43387.38302		70.72800		324.00000 
 43692.65567		 949.71062			42742.94505		228.94600		875.00000 
 43692.65567		 305.27265			43387.38302		70.72800		324.00000 
 43692.65567		 949.71062			42742.94505		228.94600		875.00000 
 43692.65567		 305.27265			43387.38302		70.72800		324.00000 
 43692.65567		 949.71062			42742.94505		228.94600		875.00000 
 43692.65567		 305.27265			43387.38302		70.72800		324.00000 
 43692.65567		 949.71062			42742.94505		228.94600		875.00000 
 43692.65567		 305.27265			43387.38302		70.72800		324.00000 
 43692.65567		 949.71062			42742.94505		228.94600		875.00000 
 43692.65567		 305.27265			43387.38302		70.72800		324.00000 
 43692.65567		 949.71062			42742.94505		228.94600		875.00000 
 43692.65567		 305.27265			43387.38302		70.72800		324.00000 
 43692.65567		 949.71062			42742.94505		228.94600		875.00000 
 43692.65567		 305.27265			43387.38302		70.72800		324.00000 
 43692.65567		 949.71062			42742.94505		228.94600		875.00000 
 43692.65567		 305.27265			43387.38302		70.72800		324.00000 
 43692.65567		 949.71062			42742.94505		228.94600		875.00000 
 43692.65567		 305.27265			43387.38302		70.72800		324.00000 
 43692.65567		 949.71062			42742.94505		228.94600		875.00000 
 43692.65567		 305.27265			43387.38302		70.72800		324.00000 
 43692.65567		 949.71062			42742.94505		228.94600		875.00000 
 43692.65567		 305.27265			43387.38302		70.72800		324.00000 
 43692.65567		 949.71062			42742.94505		228.94600		875.00000 
 43692.65567		 305.27265			43387.38302		70.72800		324.00000 
 43692.65567		 949.71062			42742.94505		228.94600		875.00000 
 43692.65567		 305.27265			43387.38302		70.72800		324.00000 
 43692.65567		 949.71062			42742.94505		228.94600		875.00000 
 43692.65567		 305.27265			43387.38302		70.72800		324.00000 
 43692.65567		 949.71062			42742.94505		228.94600		875.00000 
 43692.65567		 305.27265			43387.38302		70.72800		324.00000 
 43692.65567		 949.71062			42742.94505		228.94600		875.00000 
 43692.65567		 305.27265			43387.38302		70.72800		324.00000 
 43692.65567		 949.71062			42742.94505		228.94600		875.00000 
 43692.65567		 305.27265			43387.38302		70.72800		324.00000 
 43692.65567		 949.71062			42742.94505		228.94600		875.00000 
 43692.65567		 305.27265			43387.38302		70.72800		324.00000 
 43692.65567		 949.71062			42742.94505		228.94600		875.00000 
 43692.65567		 305.27265			43387.38302		70.72800		324.00000 
 43692.65567		 949.71062			42742.94505		228.94600		875.00000 
 43692.65567		 305.27265			43387.38302		70.72800		324.00000 
 43692.65567		 949.71062			42742.94505		228.94600		875.00000 
 43692.65567		 305.27265			43387.38302		70.72800		324.00000 
 43692.65567		 949.71062			42742.94505		228.94600		875.00000 
 43692.65567		 305.27265			43387.38302		70.72800		324.00000 
 43692.65567		 949.71062			42742.94505		228.94600		875.00000 
 43692.65567		 305.27265			43387.38302		70.72800		324.00000 
 43692.65567		 949.71062			42742.94505		228.94600		875.00000 
 43692.65567		 305.27265			43387.38302		70.72800		324.00000 
 43692.65567		 949.71062			42742.94505		228.94600		875.00000 
 43692.65567		 305.27265			43387.38302		70.72800		324.00000 
 43692.65567		 949.71062			42742.94505		228.94600		875.00000 
 43692.65567		 305.27265			43387.38302		70.72800		324.00000 
 43692.65567		 949.71062			42742.94505		228.94600		875.00000 
 43692.65567		 305.27265			43387.38302		70.72800		324.00000 
 43692.65567		 949.71062			42742.94505		228.94600		875.00000 
 43692.65567		 305.27265			43387.38302		70.72800		324.00000 
 43692.65567		 949.71062			42742.94505		228.94600		875.00000 
 43692.65567		 305.27265			43387.38302		70.72800		324.00000 
 43692.65567		 949.71062			42742.94505		228.94600		875.00000 
 43692.65567		 305.27265			43387.38302		70.72800		324.00000 
 43692.65567		 949.71062			42742.94505		228.94600		875.00000 
 43692.65567		 305.27265			43387.38302		70.72800		324.00000 
 43692.65567		 949.71062			42742.94505		228.94600		875.00000 
 43692.65567		 305.27265			43387.38302		70.72800		324.00000 
 43692.65567		 949.71062			42742.94505		228.94600		875.00000 
 43692.65567		 305.27265			43387.38302		70.72800		324.00000 
 43692.65567		 949.71062			42742.94505		228.94600		875.00000 
 43692.65567		 305.27265			43387.38302		70.72800		324.00000 
 43692.65567		 949.71062			42742.94505		228.94600		875.00000 
 43692.65567		 305.27265			43387.38302		70.72800		324.00000 
 43692.65567		 949.71062			42742.94505		228.94600		875.00000 
 43692.65567		 305.27265			43387.38302		70.72800		324.00000 
 43692.65567		 949.71062			42742.94505		228.94600		875.00000 
 43692.65567		 305.27265			43387.38302		70.72800		324.00000 
 43692.65567		 949.71062			42742.94505		228.94600		875.00000 
 43692.65567		 305.27265			43387.38302		70.72800		324.00000 
 43692.65567		 949.71062			42742.94505		228.94600		875.00000 
 43692.65567		 305.27265			43387.38302		70.72800		324.00000 
 43692.65567		 949.71062			42742.94505		228.94600		875.00000 
 43692.65567		 305.27265			43387.38302		70.72800		324.00000 
 43692.65567		 949.71062			42742.94505		228.94600		875.00000 
 43692.65567		 305.27265			43387.38302		70.72800		324.00000 
 43692.65567		 949.71062			42742.94505		228.94600		875.00000 
 43692.65567		 305.27265			43387.38302		70.72800		324.00000 
 43692.65567		 949.71062			42742.94505		228.94600		875.00000 
 43692.65567		 305.27265			43387.38302		70.72800		324.00000 
 43692.65567		 949.71062			42742.94505		228.94600		875.00000 
 43692.65567		 305.27265			43387.38302		70.72800		324.00000 
 43692.65567		 949.71062			42742.94505		228.94600		875.00000 
 43692.65567		 305.27265			43387.38302		70.72800		324.00000 
 43692.65567		 949.71062			42742.94505		228.94600		875.00000 
 43692.65567		 305.27265			43387.38302		70.72800		324.00000 
 43692.65567		 949.71062			42742.94505		228.94600		875.00000 
 43692.65567		 305.27265			43387.38302		70.72800		324.00000 
 43692.65567		 949.71062			42742.94505		228.94600		875.00000 
 43692.65567		 305.27265			43387.38302		70.72800		324.00000 
 43692.65567		 949.71062			42742.94505		228.94600		875.00000 
 43692.65567		 305.27265			43387.38302		70.72800		324.00000 
 43692.65567		 949.71062			42742.94505		228.94600		875.00000 
 43692.65567		 305.27265			43387.38302		70.72800		324.00000 
 43692.65567		 949.71062			42742.94505		228.94600		875.00000 
 43692.65567		 305.27265			43387.38302		70.72800		324.00000 
 43692.65567		 949.71062			42742.94505		228.94600		875.00000 
 43692.65567		 305.27265			43387.38302		70.72800		324.00000 
 43692.65567		 949.71062			42742.94505		228.94600		875.00000 
 43692.65567		 305.27265			43387.38302		70.72800		324.00000 
 43692.65567		 949.71062			42742.94505		228.94600		875.00000 
 43692.65567		 305.27265			43387.38302		70.72800		324.00000 
 43692.65567		 949.71062			42742.94505		228.94600		875.00000 
 43692.65567		 305.27265			43387.38302		70.72800		324.00000 
 43692.65567		 949.71062			42742.94505		228.94600		875.00000 
 43692.65567		 305.27265			43387.38302		70.72800		324.00000 
 43692.65567		 949.71062			42742.94505		228.94600		875.00000 
 43692.65567		 305.27265			43387.38302		70.72800		324.00000 
 43692.65567		 949.71062			42742.94505		228.94600		875.00000 
 43692.65567		 305.27265			43387.38302		70.72800		324.00000 
 43692.65567		 949.71062			42742.94505		228.94600		875.00000 
 43692.65567		 305.27265			43387.38302		70.72800		324.00000 
 43692.65567		 949.71062			42742.94505		228.94600		875.00000 
 43692.65567		 305.27265			43387.38302		70.72800		324.00000 
 43692.65567		 949.71062			42742.94505		228.94600		875.00000 
 43692.65567		 305.27265			43387.38302		70.72800		324.00000 
 43692.65567		 949.71062			42742.94505		228.94600		875.00000 
 43692.65567		 305.27265			43387.38302		70.72800		324.00000 
 43692.65567		 949.71062			42742.94505		228.94600		875.00000 
 43692.65567		 305.27265			43387.38302		70.72800		324.00000 
 43692.65567		 949.71062			42742.94505		228.94600		875.00000 
 43692.65567		 305.27265			43387.38302		70.72800		324.00000 
 43692.65567		 949.71062			42742.94505		228.94600		875.00000 
 43692.65567		 305.27265			43387.38302		70.72800		324.00000 
 43692.65567		 949.71062			42742.94505		228.94600		875.00000 
 43692.65567		 305.27265			43387.38302		70.72800		324.00000 
 43692.65567		 949.71062			42742.94505		228.94600		875.00000 
 43692.65567		 305.27265			43387.38302		70.72800		324.00000 
 43692.65567		 949.71062			42742.94505		228.94600		875.00000 
 43692.65567		 305.27265			43387.38302		70.72800		324.00000 
 43692.65567		 949.71062			42742.94505		228.94600		875.00000 
 43692.65567		 305.27265			43387.38302		70.72800		324.00000 
 43692.65567		 949.71062			42742.94505		228.94600		875.00000 
 43692.65567		 305.27265			43387.38302		70.72800		324.00000 
 43692.65567		 949.71062			42742.94505		228.94600		875.00000 
 43692.65567		 305.27265			43387.38302		70.72800		324.00000 
 43692.65567		 949.71062			42742.94505		228.94600		875.00000 
 43692.65567		 305.27265			43387.38302		70.72800		324.00000 
 43692.65567		 949.71062			42742.94505		228.94600		875.00000 
 43692.65567		 305.27265			43387.38302		70.72800		324.00000 
 43692.65567		 949.71062			42742.94505		228.94600		875.00000 
 43692.65567		 305.27265			43387.38302		70.72800		324.00000 
 43692.65567		 949.71062			42742.94505		228.94600		875.00000 
 43692.65567		 305.27265			43387.38302		70.72800		324.00000 
 43692.65567		 949.71062			42742.94505		228.94600		875.00000 
 43692.65567		 305.27265			43387.38302		70.72800		324.00000 
 43692.65567		 949.71062			42742.94505		228.94600		875.00000 
 43692.65567		 305.27265			43387.38302		70.72800		324.00000 
 43692.65567		 949.71062			42742.94505		228.94600		875.00000 
 43692.65567		 305.27265			43387.38302		70.72800		324.00000 
 43692.65567		 949.71062			42742.94505		228.94600		875.00000 
 43692.65567		 305.27265			43387.38302		70.72800		324.00000 
 43692.65567		 949.71062			42742.94505		228.94600		875.00000 
 43692.65567		 305.27265			43387.38302		70.72800		324.00000 
 43692.65567		 949.71062			42742.94505		228.94600		875.00000 
 43692.65567		 305.27265			43387.38302		70.72800		324.00000 
 43692.65567		 949.71062			42742.94505		228.94600		875.00000 
 43692.65567		 305.27265			43387.38302		70.72800		324.00000 
 43692.65567		 949.71062			42742.94505		228.94600		875.00000 
 43692.65567		 305.27265			43387.38302		70.72800		324.00000 
 43692.65567		 949.71062			42742.94505		228.94600		875.00000 
 43692.65567		 305.27265			43387.38302		70.72800		324.00000 
 43692.65567		 949.71062			42742.94505		228.94600		875.00000 
 43692.65567		 305.27265			43387.38302		70.72800		324.00000 
 43692.65567		 949.71062			42742.94505		228.94600		875.00000 
 43692.65567		 305.27265			43387.38302		70.72800		324.00000 
 43692.65567		 949.71062			42742.94505		228.94600		875.00000 
 43692.65567		 305.27265			43387.38302		70.72800		324.00000 
 43692.65567		 949.71062			42742.94505		228.94600		875.00000 
 43692.65567		 305.27265			43387.38302		70.72800		324.00000 
 43692.65567		 949.71062			42742.94505		228.94600		875.00000 
 43692.65567		 305.27265			43387.38302		70.72800		324.00000 
 43692.65567		 949.71062			42742.94505		228.94600		875.00000 
 43692.65567		 305.27265			43387.38302		70.72800		324.00000 
 43692.65567		 949.71062			42742.94505		228.94600		875.00000 
 43692.65567		 305.27265			43387.38302		70.72800		324.00000 
 43692.65567		 949.71062			42742.94505		228.94600		875.00000 
 43692.65567		 305.27265			43387.38302		70.72800		324.00000 
 43692.65567		 949.71062			42742.94505		228.94600		875.00000 
 43692.65567		 305.27265			43387.38302		70.72800		324.00000 
 43692.65567		 949.71062			42742.94505		228.94600		875.00000 
 43692.65567		 305.27265			43387.38302		70.72800		324.00000 
 43692.65567		 949.71062			42742.94505		228.94600		875.00000 
 43692.65567		 305.27265			43387.38302		70.72800		324.00000 
 43692.65567		 949.71062			42742.94505		228.94600		875.00000 
 43692.65567		 305.27265			43387.38302		70.72800		324.00000 
 43692.65567		 949.71062			42742.94505		228.94600		875.00000 
 43692.65567		 305.27265			43387.38302		70.72800		324.00000 
 43692.65567		 949.71062			42742.94505		229.54400		875.00000 
 43692.65567		 305.27265			43387.38302		70.72800		324.00000 
 43692.65567		 949.71062			42742.94505		229.54400		875.00000 
 43692.65567		 305.27265			43387.38302		70.72800		324.00000 
 43692.65567		 949.71062			42742.94505		229.54400		875.00000 
 43692.65567		 305.27265			43387.38302		70.72800		324.00000 
 43692.65567		 949.71062			42742.94505		229.54400		875.00000 
 43692.65567		 305.27265			43387.38302		70.72800		324.00000 
 43692.65567		 949.71062			42742.94505		229.54400		875.00000 
 43692.65567		 305.27265			43387.38302		70.72800		324.00000 
 43692.65567		 949.71062			42742.94505		229.54400		875.00000 
 43692.65567		 305.27265			43387.38302		70.72800		324.00000 
 43692.65567		 949.71062			42742.94505		229.54400		875.00000 
 43692.65567		 305.27265			43387.38302		70.72800		324.00000 
 43692.65567		 949.71062			42742.94505		229.54400		875.00000 
 43692.65567		 305.27265			43387.38302		70.72800		324.00000 
 43692.65567		 949.71062			42742.94505		229.54400		875.00000 
 43692.65567		 305.27265			43387.38302		70.72800		324.00000 
 43692.65567		 949.71062			42742.94505		229.54400		875.00000 
 43692.65567		 305.27265			43387.38302		70.72800		324.00000 
 43692.65567		 949.71062			42742.94505		229.54400		875.00000 
 43692.65567		 305.27265			43387.38302		70.72800		324.00000 
 43692.65567		 949.71062			42742.94505		229.54400		875.00000 
 43692.65567		 305.27265			43387.38302		70.72800		324.00000 
 43692.65567		 949.71062			42742.94505		229.54400		875.00000 
 43692.65567		 305.27265			43387.38302		70.72800		324.00000 
 43692.65567		 949.71062			42742.94505		229.54400		875.00000 
 43692.65567		 305.27265			43387.38302		70.72800		324.00000 
 43692.65567		 949.71062			42742.94505		229.54400		875.00000 
 43692.65567		 305.27265			43387.38302		70.72800		324.00000 
 43692.65567		 949.71062			42742.94505		229.54400		875.00000 
 43692.65567		 305.27265			43387.38302		70.72800		324.00000 
 43692.65567		 949.71062			42742.94505		229.54400		875.00000 
 43692.65567		 305.27265			43387.38302		70.72800		324.00000 
 43692.65567		 949.71062			42742.94505		229.54400		875.00000 
 43692.65567		 305.27265			43387.38302		70.72800		324.00000 
 43692.65567		 949.71062			42742.94505		229.54400		875.00000 
 43692.65567		 305.27265			43387.38302		70.72800		324.00000 
 43692.65567		 949.71062			42742.94505		229.54400		875.00000 
 43692.65567		 305.27265			43387.38302		70.72800		324.00000 
 43692.65567		 949.71062			42742.94505		229.54400		875.00000 
 43692.65567		 305.27265			43387.38302		70.72800		324.00000 
 43692.65567		 949.71062			42742.94505		229.54400		875.00000 
 43692.65567		 305.27265			43387.38302		70.72800		324.00000 
 43692.65567		 949.71062			42742.94505		229.54400		875.00000 
 43692.65567		 305.27265			43387.38302		70.72800		324.00000 
 43692.65567		 949.71062			42742.94505		229.54400		875.00000 
 43692.65567		 305.27265			43387.38302		70.72800		324.00000 
 43692.65567		 949.71062			42742.94505		229.54400		875.00000 
 43692.65567		 305.27265			43387.38302		70.72800		324.00000 
 43692.65567		 949.71062			42742.94505		229.54400		875.00000 
 43692.65567		 305.27265			43387.38302		70.72800		324.00000 
 43692.65567		 949.71062			42742.94505		229.54400		875.00000 
 43692.65567		 305.27265			43387.38302		70.72800		324.00000 
 43692.65567		 949.71062			42742.94505		229.54400		875.00000 
 43692.65567		 305.27265			43387.38302		70.72800		324.00000 
 43692.65567		 949.71062			42742.94505		229.54400		875.00000 
 43692.65567		 305.27265			43387.38302		70.72800		324.00000 
 43692.65567		 949.71062			42742.94505		229.54400		875.00000 
 43692.65567		 305.27265			43387.38302		70.72800		324.00000 
 43692.65567		 949.71062			42742.94505		229.54400		875.00000 
 43692.65567		 305.27265			43387.38302		70.72800		324.00000 
 43692.65567		 949.71062			42742.94505		229.54400		875.00000 
 43692.65567		 305.27265			43387.38302		70.72800		324.00000 
 43692.65567		 949.71062			42742.94505		229.54400		875.00000 
 43692.65567		 305.27265			43387.38302		70.72800		324.00000 
 43692.65567		 949.71062			42742.94505		229.54400		875.00000 
 43692.65567		 305.27265			43387.38302		70.72800		324.00000 
 43692.65567		 949.71062			42742.94505		229.54400		875.00000 
 43692.65567		 305.27265			43387.38302		70.72800		324.00000 
 43692.65567		 949.71062			42742.94505		229.54400		875.00000 
 43692.65567		 305.27265			43387.38302		70.72800		324.00000 
 43692.65567		 949.71062			42742.94505		229.54400		875.00000 
 43692.65567		 305.27265			43387.38302		70.72800		324.00000 
 43692.65567		 949.71062			42742.94505		229.54400		875.00000 
 43692.65567		 305.27265			43387.38302		70.72800		324.00000 
 43692.65567		 949.71062			42742.94505		229.54400		875.00000 
 43692.65567		 305.27265			43387.38302		70.72800		324.00000 
 43692.65567		 949.71062			42742.94505		229.54400		875.00000 
 43692.65567		 305.27265			43387.38302		70.72800		324.00000 
 43692.65567		 949.71062			42742.94505		229.54400		875.00000 
 43692.65567		 305.27265			43387.38302		70.72800		324.00000 
 43692.65567		 949.71062			42742.94505		229.54400		875.00000 
 43692.65567		 305.27265			43387.38302		70.72800		324.00000 
 43692.65567		 949.71062			42742.94505		229.54400		875.00000 
 43692.65567		 305.27265			43387.38302		70.72800		324.00000 
 43692.65567		 949.71062			42742.94505		229.54400		875.00000 
 43692.65567		 305.27265			43387.38302		70.72800		324.00000 
 43692.65567		 949.71062			42742.94505		229.54400		875.00000 
 43692.65567		 305.27265			43387.38302		70.72800		324.00000 
 43692.65567		 949.71062			42742.94505		229.54400		875.00000 
 43692.65567		 305.27265			43387.38302		70.72800		324.00000 
 43692.65567		 949.71062			42742.94505		229.54400		875.00000 
 43692.65567		 305.27265			43387.38302		70.72800		324.00000 
 43692.65567		 949.71062			42742.94505		229.54400		875.00000 
 43692.65567		 305.27265			43387.38302		70.72800		324.00000 
 43692.65567		 949.71062			42742.94505		229.54400		875.00000 
 43692.65567		 305.27265			43387.38302		70.72800		324.00000 
 43692.65567		 949.71062			42742.94505		229.54400		875.00000 
 43692.65567		 305.27265			43387.38302		70.72800		324.00000 
 43692.65567		 949.71062			42742.94505		229.54400		875.00000 
 43692.65567		 305.27265			43387.38302		70.72800		324.00000 
 43692.65567		 949.71062			42742.94505		229.54400		875.00000 
 43692.65567		 305.27265			43387.38302		70.72800		324.00000 
 43692.65567		 949.71062			42742.94505		229.54400		875.00000 
 43692.65567		 305.27265			43387.38302		70.72800		324.00000 
 43692.65567		 949.71062			42742.94505		229.54400		875.00000 
 43692.65567		 305.27265			43387.38302		70.72800		324.00000 
 43692.65567		 949.71062			42742.94505		229.54400		875.00000 
 43692.65567		 305.27265			43387.38302		70.72800		324.00000 
 43692.65567		 949.71062			42742.94505		229.54400		875.00000 
 43692.65567		 305.27265			43387.38302		70.72800		324.00000 
 43692.65567		 949.71062			42742.94505		229.54400		875.00000 
 43692.65567		 305.27265			43387.38302		70.72800		324.00000 
 43692.65567		 949.71062			42742.94505		229.54400		875.00000 
 43692.65567		 305.27265			43387.38302		70.72800		324.00000 
 43692.65567		 949.71062			42742.94505		229.54400		875.00000 
 43692.65567		 305.27265			43387.38302		70.72800		324.00000 
 43692.65567		 949.71062			42742.94505		229.54400		875.00000 
 43692.65567		 305.27265			43387.38302		70.72800		324.00000 
 43692.65567		 949.71062			42742.94505		229.54400		875.00000 
 43692.65567		 305.27265			43387.38302		70.72800		324.00000 
 43692.65567		 949.71062			42742.94505		229.54400		875.00000 
 43692.65567		 305.27265			43387.38302		70.72800		324.00000 
 43692.65567		 949.71062			42742.94505		229.54400		875.00000 
 43692.65567		 305.27265			43387.38302		70.72800		324.00000 
 43692.65567		 949.71062			42742.94505		229.54400		875.00000 
 43692.65567		 305.27265			43387.38302		70.72800		324.00000 
 43692.65567		 949.71062			42742.94505		229.54400		875.00000 
 43692.65567		 305.27265			43387.38302		70.72800		324.00000 
 43692.65567		 949.71062			42742.94505		229.54400		875.00000 
 43692.65567		 305.27265			43387.38302		70.72800		324.00000 
 43692.65567		 949.71062			42742.94505		229.54400		875.00000 
 43692.65567		 305.27265			43387.38302		70.72800		324.00000 
 43692.65567		 949.71062			42742.94505		229.54400		875.00000 
 43692.65567		 305.27265			43387.38302		70.72800		324.00000 
 43692.65567		 949.71062			42742.94505		229.54400		875.00000 
 43692.65567		 305.27265			43387.38302		70.72800		324.00000 
 43692.65567		 949.71062			42742.94505		229.54400		875.00000 
 43692.65567		 305.27265			43387.38302		70.72800		324.00000 
 43692.65567		 949.71062			42742.94505		229.54400		875.00000 
 43692.65567		 305.27265			43387.38302		70.72800		324.00000 
 43692.65567		 949.71062			42742.94505		229.54400		875.00000 
 43692.65567		 305.27265			43387.38302		70.72800		324.00000 
 43692.65567		 949.71062			42742.94505		229.54400		875.00000 
 43692.65567		 305.27265			43387.38302		70.72800		324.00000 
 43692.65567		 949.71062			42742.94505		229.54400		875.00000 
 43692.65567		 305.27265			43387.38302		70.72800		324.00000 
 43692.65567		 949.71062			42742.94505		229.54400		875.00000 
 43692.65567		 305.27265			43387.38302		70.72800		324.00000 
 43692.65567		 949.71062			42742.94505		229.54400		875.00000 
 43692.65567		 305.27265			43387.38302		70.72800		324.00000 
 43692.65567		 949.71062			42742.94505		229.54400		875.00000 
 43692.65567		 305.27265			43387.38302		70.72800		324.00000 
 43692.65567		 949.71062			42742.94505		229.54400		875.00000 
 43692.65567		 305.27265			43387.38302		70.72800		324.00000 
 43692.65567		 949.71062			42742.94505		229.54400		875.00000 
 43692.65567		 305.27265			43387.38302		70.72800		324.00000 
 43692.65567		 949.71062			42742.94505		229.54400		875.00000 
 43692.65567		 305.27265			43387.38302		70.72800		324.00000 
 43692.65567		 949.71062			42742.94505		229.54400		875.00000 
 43692.65567		 305.27265			43387.38302		70.72800		324.00000 
 43692.65567		 949.71062			42742.94505		229.54400		875.00000 
 43692.65567		 305.27265			43387.38302		70.72800		324.00000 
 43692.65567		 949.71062			42742.94505		229.54400		875.00000 
 43692.65567		 305.27265			43387.38302		70.72800		324.00000 
 43692.65567		 949.71062			42742.94505		229.54400		875.00000 
 43692.65567		 305.27265			43387.38302		70.72800		324.00000 
 43692.65567		 949.71062			42742.94505		229.54400		875.00000 
 43692.65567		 305.27265			43387.38302		70.72800		324.00000 
 43692.65567		 949.71062			42742.94505		229.54400		875.00000 
 43692.65567		 305.27265			43387.38302		70.72800		324.00000 
 43692.65567		 949.71062			42742.94505		229.54400		875.00000 
 43692.65567		 305.27265			43387.38302		70.72800		324.00000 
 43692.65567		 949.71062			42742.94505		229.54400		875.00000 
 43692.65567		 305.27265			43387.38302		70.72800		324.00000 
 43692.65567		 949.71062			42742.94505		229.54400		875.00000 
 43692.65567		 305.27265			43387.38302		70.72800		324.00000 
 43692.65567		 949.71062			42742.94505		229.54400		875.00000 
 43692.65567		 305.27265			43387.38302		70.72800		324.00000 
 43692.65567		 949.71062			42742.94505		229.54400		875.00000 
 43692.65567		 305.27265			43387.38302		70.72800		324.00000 
 43692.65567		 949.71062			42742.94505		229.54400		875.00000 
 43692.65567		 305.27265			43387.38302		70.72800		324.00000 
 43692.65567		 949.71062			42742.94505		229.54400		875.00000 
 43692.65567		 305.27265			43387.38302		70.72800		324.00000 
 43692.65567		 949.71062			42742.94505		229.54400		875.00000 
 43692.65567		 305.27265			43387.38302		70.72800		324.00000 
 43692.65567		 949.71062			42742.94505		229.54400		875.00000 
 43692.65567		 305.27265			43387.38302		70.72800		324.00000 
 43692.65567		 949.71062			42742.94505		229.54400		875.00000 
 43692.65567		 305.27265			43387.38302		70.72800		324.00000 
 43692.65567		 949.71062			42742.94505		229.54400		875.00000 
 43692.65567		 305.27265			43387.38302		70.72800		324.00000 
 43692.65567		 949.71062			42742.94505		229.54400		875.00000 
 43692.65567		 305.27265			43387.38302		70.72800		324.00000 
 43692.65567		 949.71062			42742.94505		229.54400		875.00000 
 43692.65567		 305.27265			43387.38302		70.72800		324.00000 
 43692.65567		 949.71062			42742.94505		229.54400		875.00000 
 43692.65567		 305.27265			43387.38302		70.72800		324.00000 
 43692.65567		 949.71062			42742.94505		229.54400		875.00000 
 43692.65567		 305.27265			43387.38302		70.72800		324.00000 
 43692.65567		 949.71062			42742.94505		229.54400		875.00000 
 43692.65567		 305.27265			43387.38302		70.72800		324.00000 
 43692.65567		 949.71062			42742.94505		229.54400		875.00000 
 43692.65567		 305.27265			43387.38302		70.72800		324.00000 
 43692.65567		 949.71062			42742.94505		229.54400		875.00000 
 43692.65567		 305.27265			43387.38302		70.72800		324.00000 
 43692.65567		 949.71062			42742.94505		229.54400		875.00000 
 43692.65567		 305.27265			43387.38302		70.72800		324.00000 
 43692.65567		 949.71062			42742.94505		229.54400		875.00000 
 43692.65567		 305.27265			43387.38302		70.72800		324.00000 
 43692.65567		 949.71062			42742.94505		229.54400		875.00000 
 43692.65567		 305.27265			43387.38302		70.72800		324.00000 
 43692.65567		 949.71062			42742.94505		229.54400		875.00000 
 43692.65567		 305.27265			43387.38302		70.72800		324.00000 
 43692.65567		 949.71062			42742.94505		229.54400		875.00000 
 43692.65567		 305.27265			43387.38302		70.72800		324.00000 
 43692.65567		 949.71062			42742.94505		229.54400		875.00000 
 43692.65567		 305.27265			43387.38302		70.72800		324.00000 
 43692.65567		 949.71062			42742.94505		229.54400		875.00000 
 43692.65567		 305.27265			43387.38302		70.72800		324.00000 
 43692.65567		 949.71062			42742.94505		229.54400		875.00000 
 43692.65567		 305.27265			43387.38302		70.72800		324.00000 
 43692.65567		 949.71062			42742.94505		229.54400		875.00000 
 43692.65567		 305.27265			43387.38302		70.72800		324.00000 
 43692.65567		 949.71062			42742.94505		229.54400		875.00000 
 43692.65567		 305.27265			43387.38302		70.72800		324.00000 
 43692.65567		 949.71062			42742.94505		229.54400		875.00000 
 43692.65567		 305.27265			43387.38302		70.72800		324.00000 
 43692.65567		 949.71062			42742.94505		229.54400		875.00000 
 43692.65567		 305.27265			43387.38302		70.72800		324.00000 
 43692.65567		 949.71062			42742.94505		229.54400		875.00000 
 43692.65567		 305.27265			43387.38302		70.72800		324.00000 
 43692.65567		 949.71062			42742.94505		229.54400		875.00000 
 43692.65567		 305.27265			43387.38302		70.72800		324.00000 
 43692.65567		 949.71062			42742.94505		229.54400		875.00000 
 43692.65567		 305.27265			43387.38302		70.72800		324.00000 
 43692.65567		 949.71062			42742.94505		229.54400		875.00000 
 43692.65567		 305.27265			43387.38302		70.72800		324.00000 
 43692.65567		 949.71062			42742.94505		229.54400		875.00000 
 43692.65567		 305.27265			43387.38302		70.72800		324.00000 
 43692.65567		 949.71062			42742.94505		229.54400		875.00000 
 43692.65567		 305.27265			43387.38302		70.72800		324.00000 
 43692.65567		 949.71062			42742.94505		229.54400		875.00000 
 43692.65567		 305.27265			43387.38302		70.72800		324.00000 
 43692.65567		 949.71062			42742.94505		229.54400		875.00000 
 43692.65567		 305.27265			43387.38302		70.72800		324.00000 
 43692.65567		 949.71062			42742.94505		229.54400		875.00000 
 43692.65567		 305.27265			43387.38302		70.72800		324.00000 
 43692.65567		 949.71062			42742.94505		229.54400		875.00000 
 43692.65567		 305.27265			43387.38302		70.72800		324.00000 
 43692.65567		 949.71062			42742.94505		229.54400		875.00000 
 43692.65567		 305.27265			43387.38302		70.72800		324.00000 
 43692.65567		 949.71062			42742.94505		229.54400		875.00000 
 43692.65567		 305.27265			43387.38302		70.72800		324.00000 
 43692.65567		 949.71062			42742.94505		229.54400		875.00000 
 43692.65567		 305.27265			43387.38302		70.72800		324.00000 
 43692.65567		 949.71062			42742.94505		229.54400		875.00000 
 43692.65567		 305.27265			43387.38302		70.72800		324.00000 
 43692.65567		 949.71062			42742.94505		229.54400		875.00000 
 43692.65567		 305.27265			43387.38302		70.72800		324.00000 
 43692.65567		 949.71062			42742.94505		229.54400		875.00000 
 43692.65567		 305.27265			43387.38302		70.72800		324.00000 
 43692.65567		 949.71062			42742.94505		229.54400		875.00000 
 43692.65567		 305.27265			43387.38302		70.72800		324.00000 
 43692.65567		 949.71062			42742.94505		229.54400		875.00000 
 43692.65567		 305.27265			43387.38302		70.72800		324.00000 
 43692.65567		 949.71062			42742.94505		229.54400		875.00000 
 43692.65567		 305.27265			43387.38302		70.72800		324.00000 
 43692.65567		 949.71062			42742.94505		229.54400		875.00000 
 43692.65567		 305.27265			43387.38302		70.72800		324.00000 
 43692.65567		 949.71062			42742.94505		229.54400		875.00000 
 43692.65567		 305.27265			43387.38302		70.72800		324.00000 
 43692.65567		 949.71062			42742.94505		229.54400		875.00000 
 43692.65567		 305.27265			43387.38302		70.72800		324.00000 
 43692.65567		 949.71062			42742.94505		229.54400		875.00000 
 43692.65567		 305.27265			43387.38302		70.72800		324.00000 
 43692.65567		 949.71062			42742.94505		229.54400		875.00000 
 43692.65567		 305.27265			43387.38302		70.72800		324.00000 
 43692.65567		 949.71062			42742.94505		229.54400		875.00000 
 43692.65567		 305.27265			43387.38302		70.72800		324.00000 
 43692.65567		 949.71062			42742.94505		229.54400		875.00000 
 43692.65567		 305.27265			43387.38302		70.72800		324.00000 
 43692.65567		 949.71062			42742.94505		229.54400		875.00000 
 43692.65567		 305.27265			43387.38302		70.72800		324.00000 
 43692.65567		 949.71062			42742.94505		229.54400		875.00000 
 43692.65567		 305.27265			43387.38302		70.72800		324.00000 
 43692.65567		 949.71062			42742.94505		229.54400		875.00000 
 43692.65567		 305.27265			43387.38302		70.72800		324.00000 
 43692.65567		 949.71062			42742.94505		229.54400		875.00000 
 43692.65567		 305.27265			43387.38302		70.72800		324.00000 
 43692.65567		 949.71062			42742.94505		229.54400		875.00000 
 43692.65567		 305.27265			43387.38302		70.72800		324.00000 
 43692.65567		 949.71062			42742.94505		229.54400		875.00000 
 43692.65567		 305.27265			43387.38302		70.72800		324.00000 
 43692.65567		 949.71062			42742.94505		229.54400		875.00000 
 43692.65567		 305.27265			43387.38302		70.72800		324.00000 
 43692.65567		 949.71062			42742.94505		229.54400		875.00000 
 43692.65567		 305.27265			43387.38302		70.72800		324.00000 
 43692.65567		 949.71062			42742.94505		229.54400		875.00000 
 43692.65567		 305.27265			43387.38302		70.72800		324.00000 
 43692.65567		 949.71062			42742.94505		229.54400		875.00000 
 43692.65567		 305.27265			43387.38302		70.72800		324.00000 
 43692.65567		 949.71062			42742.94505		229.54400		875.00000 
 43692.65567		 305.27265			43387.38302		70.72800		324.00000 
 43692.65567		 949.71062			42742.94505		229.54400		875.00000 
 43692.65567		 305.27265			43387.38302		70.72800		324.00000 
 43692.65567		 949.71062			42742.94505		229.54400		875.00000 
 43692.65567		 305.27265			43387.38302		70.72800		324.00000 
 43692.65567		 949.71062			42742.94505		229.54400		875.00000 
 43692.65567		 305.27265			43387.38302		70.72800		324.00000 
 43692.65567		 949.71062			42742.94505		229.54400		875.00000 
 43692.65567		 305.27265			43387.38302		70.72800		324.00000 
 43692.65567		 949.71062			42742.94505		229.54400		875.00000 
 43692.65567		 305.27265			43387.38302		70.72800		324.00000 
 43692.65567		 949.71062			42742.94505		229.54400		875.00000 
 43692.65567		 305.27265			43387.38302		70.72800		324.00000 
 43692.65567		 949.71062			42742.94505		229.54400		875.00000 
 43692.65567		 305.27265			43387.38302		70.72800		324.00000 
 43692.65567		 949.71062			42742.94505		229.54400		875.00000 
 43692.65567		 305.27265			43387.38302		70.72800		324.00000 
 43692.65567		 949.71062			42742.94505		229.54400		875.00000 
 43692.65567		 305.27265			43387.38302		70.72800		324.00000 
 43692.65567		 949.71062			42742.94505		229.54400		875.00000 
 43692.65567		 305.27265			43387.38302		70.72800		324.00000 
 43692.65567		 949.71062			42742.94505		229.54400		875.00000 
 43692.65567		 305.27265			43387.38302		70.72800		324.00000 
 43692.65567		 949.71062			42742.94505		229.54400		875.00000 
 43692.65567		 305.27265			43387.38302		70.72800		324.00000 
 43692.65567		 949.71062			42742.94505		229.54400		875.00000 
 43692.65567		 305.27265			43387.38302		70.72800		324.00000 
 43692.65567		 949.71062			42742.94505		229.54400		875.00000 
 43692.65567		 305.27265			43387.38302		70.72800		324.00000 
 43692.65567		 949.71062			42742.94505		229.54400		875.00000 
 43692.65567		 305.27265			43387.38302		70.72800		324.00000 
 43692.65567		 949.71062			42742.94505		229.54400		875.00000 
 43692.65567		 305.27265			43387.38302		70.72800		324.00000 
 43692.65567		 949.71062			42742.94505		229.54400		875.00000 
 43692.65567		 305.27265			43387.38302		70.72800		324.00000 
 43692.65567		 949.71062			42742.94505		229.54400		875.00000 
 43692.65567		 305.27265			43387.38302		70.72800		324.00000 
 43692.65567		 949.71062			42742.94505		229.54400		875.00000 
 43692.65567		 305.27265			43387.38302		70.72800		324.00000 
 43692.65567		 949.71062			42742.94505		229.54400		875.00000 
 43692.65567		 305.27265			43387.38302		70.72800		324.00000 
 43692.65567		 949.71062			42742.94505		229.54400		875.00000 
 43692.65567		 305.27265			43387.38302		70.72800		324.00000 
 43692.65567		 949.71062			42742.94505		229.54400		875.00000 
 43692.65567		 305.27265			43387.38302		70.72800		324.00000 
 43692.65567		 949.71062			42742.94505		229.54400		875.00000 
 43692.65567		 305.27265			43387.38302		70.72800		324.00000 
 43692.65567		 949.71062			42742.94505		229.54400		875.00000 
 43692.65567		 305.27265			43387.38302		70.72800		324.00000 
 43692.65567		 949.71062			42742.94505		229.54400		875.00000 
 43692.65567		 305.27265			43387.38302		70.72800		324.00000 
 43692.65567		 949.71062			42742.94505		229.54400		875.00000 
 43692.65567		 305.27265			43387.38302		70.72800		324.00000 
 43692.65567		 949.71062			42742.94505		229.54400		875.00000 
 43692.65567		 305.27265			43387.38302		70.72800		324.00000 
 43692.65567		 949.71062			42742.94505		229.54400		875.00000 
 43692.65567		 305.27265			43387.38302		70.72800		324.00000 
 43692.65567		 949.71062			42742.94505		229.54400		875.00000 
 43692.65567		 305.27265			43387.38302		70.72800		324.00000 
 43692.65567		 949.71062			42742.94505		229.54400		875.00000 
 43692.65567		 305.27265			43387.38302		70.72800		324.00000 
 43692.65567		 949.71062			42742.94505		229.54400		875.00000 
 43692.65567		 305.27265			43387.38302		70.72800		324.00000 
 43692.65567		 949.71062			42742.94505		229.54400		875.00000 
 43692.65567		 305.27265			43387.38302		70.72800		324.00000 
 43692.65567		 949.71062			42742.94505		229.54400		875.00000 
 43692.65567		 305.27265			43387.38302		70.72800		324.00000 
 43692.65567		 949.71062			42742.94505		229.54400		875.00000 
 43692.65567		 305.27265			43387.38302		70.72800		324.00000 
 43692.65567		 949.71062			42742.94505		229.54400		875.00000 
 43692.65567		 305.27265			43387.38302		70.72800		324.00000 
 43692.65567		 949.71062			42742.94505		229.54400		875.00000 
 43692.65567		 305.27265			43387.38302		70.72800		324.00000 
 43692.65567		 812.23052			42880.42515		229.54400		875.00000 
 43692.65567		 305.27265			43387.38302		70.72800		324.00000 
 43692.65567		 812.23052			42880.42515		229.54400		875.00000 
 43692.65567		 305.27265			43387.38302		70.72800		324.00000 
 43692.65567		 674.75042			43017.90525		229.54400		875.00000 
 43692.65567		 305.27265			43387.38302		70.72800		324.00000 
 43692.65567		 674.75042			43017.90525		229.54400		875.00000 
 43692.65567		 305.27265			43387.38302		70.72800		324.00000 
 43692.65567		 537.27032			43155.38535		222.30000		875.00000 
 43692.65567		 305.27265			43387.38302		70.72800		324.00000 
 43692.65567		 537.27032			43155.38535		222.30000		875.00000 
 43692.65567		 305.27265			43387.38302		70.72800		324.00000 
 43692.65567		 537.27032			43155.38535		222.30000		875.00000 
 43692.65567		 305.27265			43387.38302		70.72800		324.00000 
 43692.65567		 537.27032			43155.38535		222.30000		875.00000 
 43692.65567		 305.27265			43387.38302		70.72800		324.00000 
 43692.65567		 537.27032			43155.38535		222.30000		875.00000 
 43692.65567		 305.27265			43387.38302		70.72800		324.00000 
 43692.65567		 537.27032			43155.38535		222.30000		875.00000 
 43692.65567		 305.27265			43387.38302		70.72800		324.00000 
 43692.65567		 537.27032			43155.38535		222.30000		875.00000 
 43692.65567		 305.27265			43387.38302		70.72800		324.00000 
 43692.65567		 537.27032			43155.38535		222.30000		875.00000 
 43692.65567		 305.27265			43387.38302		70.72800		324.00000 
 43692.65567		 537.27032			43155.38535		222.30000		875.00000 
 43692.65567		 305.27265			43387.38302		70.72800		324.00000 
 43692.65567		 537.27032			43155.38535		222.30000		875.00000 
 43692.65567		 305.27265			43387.38302		70.72800		324.00000 
 43692.65567		 537.27032			43155.38535		222.30000		875.00000 
 43692.65567		 305.27265			43387.38302		70.72800		324.00000 
 43692.65567		 537.27032			43155.38535		222.30000		875.00000 
 43692.65567		 305.27265			43387.38302		70.72800		324.00000 
 43692.65567		 537.27032			43155.38535		222.30000		875.00000 
 43692.65567		 305.27265			43387.38302		70.72800		324.00000 
 43692.65567		 537.27032			43155.38535		222.30000		875.00000 
 43692.65567		 305.27265			43387.38302		70.72800		324.00000 
 43692.65567		 537.27032			43155.38535		222.30000		875.00000 
 43692.65567		 305.27265			43387.38302		70.72800		324.00000 
 43692.65567		 537.27032			43155.38535		222.30000		875.00000 
 43692.65567		 305.27265			43387.38302		70.72800		324.00000 
 43692.65567		 537.27032			43155.38535		222.30000		875.00000 
 43692.65567		 305.27265			43387.38302		70.72800		324.00000 
 43692.65567		 537.27032			43155.38535		222.30000		875.00000 
 43692.65567		 305.27265			43387.38302		70.72800		324.00000 
 43692.65567		 537.27032			43155.38535		222.30000		875.00000 
 43692.65567		 305.27265			43387.38302		70.72800		324.00000 
 43692.65567		 525.81365			43166.84203		222.30000		875.00000 
 43692.65567		 305.27265			43387.38302		70.72800		324.00000 
 43692.65567		 525.81365			43166.84203		222.30000		875.00000 
 43692.65567		 261.35540			43431.30027		70.72800		324.00000 
 43692.65567		 261.35540			43431.30027		222.30000		875.00000 
 43692.65567		 261.35540			43431.30027		70.72800		324.00000 
