Memory Total (MiB) 	 Memory Used (MiB) 	    Memory Free (MiB) 	 Power Drawed (W) 	 Clocks (Mhz) 	 
 43692.65567		 261.35540			43431.30027		175.75400		875.00000 
 43692.65567		 261.35540			43431.30027		68.69600		324.00000 
 43692.65567		 261.35540			43431.30027		175.75400		875.00000 
 43692.65567		 261.35540			43431.30027		68.69600		324.00000 
 43692.65567		 261.35540			43431.30027		175.75400		875.00000 
 43692.65567		 261.35540			43431.30027		68.69600		324.00000 
 43692.65567		 261.35540			43431.30027		175.75400		875.00000 
 43692.65567		 261.35540			43431.30027		68.69600		324.00000 
 43692.65567		 261.35540			43431.30027		175.75400		875.00000 
 43692.65567		 261.35540			43431.30027		68.69600		324.00000 
 43692.65567		 261.35540			43431.30027		175.75400		875.00000 
 43692.65567		 261.35540			43431.30027		68.69600		324.00000 
 43692.65567		 261.35540			43431.30027		175.75400		875.00000 
 43692.65567		 261.35540			43431.30027		68.69600		324.00000 
 43692.65567		 261.35540			43431.30027		175.75400		875.00000 
 43692.65567		 261.35540			43431.30027		68.69600		324.00000 
 43692.65567		 261.35540			43431.30027		175.75400		875.00000 
 43692.65567		 261.35540			43431.30027		68.69600		324.00000 
 43692.65567		 261.35540			43431.30027		175.75400		875.00000 
 43692.65567		 261.35540			43431.30027		68.69600		324.00000 
 43692.65567		 261.35540			43431.30027		175.75400		875.00000 
 43692.65567		 261.35540			43431.30027		68.69600		324.00000 
 43692.65567		 261.35540			43431.30027		175.75400		875.00000 
 43692.65567		 261.35540			43431.30027		68.69600		324.00000 
 43692.65567		 261.35540			43431.30027		175.75400		875.00000 
 43692.65567		 261.35540			43431.30027		68.69600		324.00000 
 43692.65567		 261.35540			43431.30027		175.75400		875.00000 
 43692.65567		 261.35540			43431.30027		68.69600		324.00000 
 43692.65567		 261.35540			43431.30027		175.75400		875.00000 
 43692.65567		 261.35540			43431.30027		68.69600		324.00000 
 43692.65567		 261.35540			43431.30027		175.75400		875.00000 
 43692.65567		 261.35540			43431.30027		68.69600		324.00000 
 43692.65567		 261.35540			43431.30027		175.75400		875.00000 
 43692.65567		 261.35540			43431.30027		68.69600		324.00000 
 43692.65567		 261.35540			43431.30027		175.75400		875.00000 
 43692.65567		 261.35540			43431.30027		68.69600		324.00000 
 43692.65567		 265.17429			43427.48138		175.75400		875.00000 
 43692.65567		 261.35540			43431.30027		68.69600		324.00000 
 43692.65567		 265.17429			43427.48138		175.75400		875.00000 
 43692.65567		 261.35540			43431.30027		68.69600		324.00000 
 43692.65567		 272.81207			43419.84360		175.75400		875.00000 
 43692.65567		 261.35540			43431.30027		68.69600		324.00000 
 43692.65567		 272.81207			43419.84360		175.75400		875.00000 
 43692.65567		 261.35540			43431.30027		68.69600		324.00000 
 43692.65567		 272.81207			43419.84360		175.75400		875.00000 
 43692.65567		 265.17429			43427.48138		68.69600		324.00000 
 43692.65567		 272.81207			43419.84360		175.75400		875.00000 
 43692.65567		 265.17429			43427.48138		68.69600		324.00000 
 43692.65567		 272.81207			43419.84360		175.75400		875.00000 
 43692.65567		 272.81207			43419.84360		68.69600		324.00000 
 43692.65567		 272.81207			43419.84360		175.75400		875.00000 
 43692.65567		 272.81207			43419.84360		68.69600		324.00000 
 43692.65567		 272.81207			43419.84360		175.75400		875.00000 
 43692.65567		 272.81207			43419.84360		68.69600		324.00000 
 43692.65567		 272.81207			43419.84360		175.75400		875.00000 
 43692.65567		 305.27265			43387.38302		68.69600		324.00000 
 43692.65567		 305.27265			43387.38302		175.75400		875.00000 
 43692.65567		 305.27265			43387.38302		68.69600		324.00000 
 43692.65567		 305.27265			43387.38302		175.75400		875.00000 
 43692.65567		 305.27265			43387.38302		68.69600		324.00000 
 43692.65567		 305.27265			43387.38302		175.75400		875.00000 
 43692.65567		 305.27265			43387.38302		68.69600		324.00000 
 43692.65567		 305.27265			43387.38302		175.75400		875.00000 
 43692.65567		 305.27265			43387.38302		68.69600		324.00000 
 43692.65567		 309.09154			43383.56413		175.75400		875.00000 
 43692.65567		 305.27265			43387.38302		68.69600		324.00000 
 43692.65567		 310.52363			43382.13204		147.50000		875.00000 
 43692.65567		 305.27265			43387.38302		68.69600		324.00000 
 43692.65567		 311.00099			43381.65468		147.50000		875.00000 
 43692.65567		 305.27265			43387.38302		68.69600		324.00000 
 43692.65567		 311.00099			43381.65468		147.50000		875.00000 
 43692.65567		 305.27265			43387.38302		68.69600		324.00000 
 43692.65567		 311.00099			43381.65468		147.50000		875.00000 
 43692.65567		 305.27265			43387.38302		68.69600		324.00000 
 43692.65567		 311.00099			43381.65468		147.50000		875.00000 
 43692.65567		 305.27265			43387.38302		68.69600		324.00000 
 43692.65567		 311.00099			43381.65468		147.50000		875.00000 
 43692.65567		 305.27265			43387.38302		68.69600		324.00000 
 43692.65567		 311.00099			43381.65468		147.50000		875.00000 
 43692.65567		 305.27265			43387.38302		68.69600		324.00000 
 43692.65567		 311.00099			43381.65468		147.50000		875.00000 
 43692.65567		 305.27265			43387.38302		68.69600		324.00000 
 43692.65567		 311.00099			43381.65468		147.50000		875.00000 
 43692.65567		 305.27265			43387.38302		68.69600		324.00000 
 43692.65567		 311.00099			43381.65468		147.50000		875.00000 
 43692.65567		 305.27265			43387.38302		68.69600		324.00000 
 43692.65567		 311.00099			43381.65468		147.50000		875.00000 
 43692.65567		 305.27265			43387.38302		68.69600		324.00000 
 43692.65567		 311.00099			43381.65468		147.50000		875.00000 
 43692.65567		 305.27265			43387.38302		68.69600		324.00000 
 43692.65567		 311.00099			43381.65468		147.50000		875.00000 
 43692.65567		 305.27265			43387.38302		68.69600		324.00000 
 43692.65567		 311.00099			43381.65468		147.50000		875.00000 
 43692.65567		 305.27265			43387.38302		68.69600		324.00000 
 43692.65567		 311.00099			43381.65468		147.50000		875.00000 
 43692.65567		 305.27265			43387.38302		68.69600		324.00000 
 43692.65567		 311.00099			43381.65468		147.50000		875.00000 
 43692.65567		 305.27265			43387.38302		68.69600		324.00000 
 43692.65567		 311.00099			43381.65468		147.50000		875.00000 
 43692.65567		 305.27265			43387.38302		68.69600		324.00000 
 43692.65567		 311.00099			43381.65468		147.50000		875.00000 
 43692.65567		 305.27265			43387.38302		68.69600		324.00000 
 43692.65567		 311.00099			43381.65468		147.50000		875.00000 
 43692.65567		 305.27265			43387.38302		68.69600		324.00000 
 43692.65567		 311.00099			43381.65468		147.50000		875.00000 
 43692.65567		 305.27265			43387.38302		68.69600		324.00000 
 43692.65567		 311.00099			43381.65468		147.50000		875.00000 
 43692.65567		 305.27265			43387.38302		68.69600		324.00000 
 43692.65567		 311.00099			43381.65468		147.50000		875.00000 
 43692.65567		 305.27265			43387.38302		68.69600		324.00000 
 43692.65567		 311.00099			43381.65468		147.50000		875.00000 
 43692.65567		 305.27265			43387.38302		68.69600		324.00000 
 43692.65567		 311.00099			43381.65468		147.50000		875.00000 
 43692.65567		 305.27265			43387.38302		68.69600		324.00000 
 43692.65567		 311.00099			43381.65468		147.50000		875.00000 
 43692.65567		 305.27265			43387.38302		68.69600		324.00000 
 43692.65567		 311.00099			43381.65468		147.50000		875.00000 
 43692.65567		 305.27265			43387.38302		68.69600		324.00000 
 43692.65567		 311.00099			43381.65468		147.50000		875.00000 
 43692.65567		 305.27265			43387.38302		68.69600		324.00000 
 43692.65567		 311.00099			43381.65468		147.50000		875.00000 
 43692.65567		 305.27265			43387.38302		68.69600		324.00000 
 43692.65567		 311.00099			43381.65468		147.50000		875.00000 
 43692.65567		 305.27265			43387.38302		68.69600		324.00000 
 43692.65567		 311.00099			43381.65468		147.50000		875.00000 
 43692.65567		 305.27265			43387.38302		68.69600		324.00000 
 43692.65567		 311.00099			43381.65468		137.12600		875.00000 
 43692.65567		 305.27265			43387.38302		68.69600		324.00000 
 43692.65567		 311.00099			43381.65468		137.12600		875.00000 
 43692.65567		 305.27265			43387.38302		68.69600		324.00000 
 43692.65567		 311.00099			43381.65468		137.12600		875.00000 
 43692.65567		 305.27265			43387.38302		68.69600		324.00000 
 43692.65567		 311.00099			43381.65468		137.12600		875.00000 
 43692.65567		 305.27265			43387.38302		68.69600		324.00000 
 43692.65567		 311.00099			43381.65468		137.12600		875.00000 
 43692.65567		 305.27265			43387.38302		68.69600		324.00000 
 43692.65567		 311.00099			43381.65468		137.12600		875.00000 
 43692.65567		 305.27265			43387.38302		68.69600		324.00000 
 43692.65567		 311.00099			43381.65468		137.12600		875.00000 
 43692.65567		 305.27265			43387.38302		68.69600		324.00000 
 43692.65567		 311.00099			43381.65468		137.12600		875.00000 
 43692.65567		 305.27265			43387.38302		68.69600		324.00000 
 43692.65567		 311.00099			43381.65468		137.12600		875.00000 
 43692.65567		 305.27265			43387.38302		68.69600		324.00000 
 43692.65567		 311.00099			43381.65468		137.12600		875.00000 
 43692.65567		 305.27265			43387.38302		68.69600		324.00000 
 43692.65567		 311.00099			43381.65468		137.12600		875.00000 
 43692.65567		 305.27265			43387.38302		68.69600		324.00000 
 43692.65567		 311.00099			43381.65468		137.12600		875.00000 
 43692.65567		 305.27265			43387.38302		68.69600		324.00000 
 43692.65567		 311.00099			43381.65468		137.12600		875.00000 
 43692.65567		 305.27265			43387.38302		68.69600		324.00000 
 43692.65567		 311.00099			43381.65468		137.12600		875.00000 
 43692.65567		 305.27265			43387.38302		68.69600		324.00000 
 43692.65567		 311.00099			43381.65468		137.12600		875.00000 
 43692.65567		 305.27265			43387.38302		68.69600		324.00000 
 43692.65567		 311.00099			43381.65468		137.12600		875.00000 
 43692.65567		 305.27265			43387.38302		68.69600		324.00000 
 43692.65567		 311.00099			43381.65468		137.12600		875.00000 
 43692.65567		 305.27265			43387.38302		68.69600		324.00000 
 43692.65567		 311.00099			43381.65468		137.12600		875.00000 
 43692.65567		 305.27265			43387.38302		68.69600		324.00000 
 43692.65567		 311.00099			43381.65468		137.12600		875.00000 
 43692.65567		 305.27265			43387.38302		68.69600		324.00000 
 43692.65567		 311.00099			43381.65468		137.12600		875.00000 
 43692.65567		 305.27265			43387.38302		68.69600		324.00000 
 43692.65567		 314.81988			43377.83579		137.12600		875.00000 
 43692.65567		 305.27265			43387.38302		68.69600		324.00000 
 43692.65567		 314.81988			43377.83579		137.12600		875.00000 
 43692.65567		 305.27265			43387.38302		68.69600		324.00000 
 43692.65567		 314.81988			43377.83579		137.12600		875.00000 
 43692.65567		 305.27265			43387.38302		68.69600		324.00000 
 43692.65567		 318.63877			43374.01690		137.12600		875.00000 
 43692.65567		 305.27265			43387.38302		68.69600		324.00000 
 43692.65567		 322.45767			43370.19801		137.12600		875.00000 
 43692.65567		 305.27265			43387.38302		68.69600		324.00000 
 43692.65567		 326.27656			43366.37912		137.12600		875.00000 
 43692.65567		 305.27265			43387.38302		68.69600		324.00000 
 43692.65567		 326.27656			43366.37912		137.12600		875.00000 
 43692.65567		 305.27265			43387.38302		68.69600		324.00000 
 43692.65567		 326.27656			43366.37912		137.12600		875.00000 
 43692.65567		 305.27265			43387.38302		68.69600		324.00000 
 43692.65567		 537.27032			43155.38535		137.12600		875.00000 
 43692.65567		 305.27265			43387.38302		68.69600		324.00000 
 43692.65567		 613.64816			43079.00752		137.12600		875.00000 
 43692.65567		 305.27265			43387.38302		68.69600		324.00000 
 43692.65567		 651.83707			43040.81860		137.12600		875.00000 
 43692.65567		 305.27265			43387.38302		68.69600		324.00000 
 43692.65567		 651.83707			43040.81860		137.12600		875.00000 
 43692.65567		 305.27265			43387.38302		68.69600		324.00000 
 43692.65567		 651.83707			43040.81860		137.12600		875.00000 
 43692.65567		 305.27265			43387.38302		68.69600		324.00000 
 43692.65567		 651.83707			43040.81860		137.12600		875.00000 
 43692.65567		 305.27265			43387.38302		68.69600		324.00000 
 43692.65567		 651.83707			43040.81860		137.12600		875.00000 
 43692.65567		 305.27265			43387.38302		68.69600		324.00000 
 43692.65567		 651.83707			43040.81860		137.12600		875.00000 
 43692.65567		 305.27265			43387.38302		68.69600		324.00000 
 43692.65567		 651.83707			43040.81860		137.12600		875.00000 
 43692.65567		 305.27265			43387.38302		68.69600		324.00000 
 43692.65567		 651.83707			43040.81860		137.12600		875.00000 
 43692.65567		 305.27265			43387.38302		68.69600		324.00000 
 43692.65567		 651.83707			43040.81860		137.12600		875.00000 
 43692.65567		 305.27265			43387.38302		68.69600		324.00000 
 43692.65567		 651.83707			43040.81860		145.56400		875.00000 
 43692.65567		 305.27265			43387.38302		68.69600		324.00000 
 43692.65567		 651.83707			43040.81860		145.56400		875.00000 
 43692.65567		 305.27265			43387.38302		68.69600		324.00000 
 43692.65567		 651.83707			43040.81860		145.56400		875.00000 
 43692.65567		 305.27265			43387.38302		68.69600		324.00000 
 43692.65567		 651.83707			43040.81860		145.56400		875.00000 
 43692.65567		 305.27265			43387.38302		68.69600		324.00000 
 43692.65567		 651.83707			43040.81860		145.56400		875.00000 
 43692.65567		 305.27265			43387.38302		68.69600		324.00000 
 43692.65567		 651.83707			43040.81860		145.56400		875.00000 
 43692.65567		 305.27265			43387.38302		68.69600		324.00000 
 43692.65567		 651.83707			43040.81860		145.56400		875.00000 
 43692.65567		 305.27265			43387.38302		68.69600		324.00000 
 43692.65567		 651.83707			43040.81860		145.56400		875.00000 
 43692.65567		 305.27265			43387.38302		68.69600		324.00000 
 43692.65567		 651.83707			43040.81860		145.56400		875.00000 
 43692.65567		 305.27265			43387.38302		68.69600		324.00000 
 43692.65567		 651.83707			43040.81860		145.56400		875.00000 
 43692.65567		 305.27265			43387.38302		68.69600		324.00000 
 43692.65567		 651.83707			43040.81860		145.56400		875.00000 
 43692.65567		 305.27265			43387.38302		68.69600		324.00000 
 43692.65567		 651.83707			43040.81860		145.56400		875.00000 
 43692.65567		 305.27265			43387.38302		68.69600		324.00000 
 43692.65567		 651.83707			43040.81860		145.56400		875.00000 
 43692.65567		 305.27265			43387.38302		68.69600		324.00000 
 43692.65567		 651.83707			43040.81860		145.56400		875.00000 
 43692.65567		 305.27265			43387.38302		68.69600		324.00000 
 43692.65567		 651.83707			43040.81860		145.56400		875.00000 
 43692.65567		 305.27265			43387.38302		68.69600		324.00000 
 43692.65567		 651.83707			43040.81860		145.56400		875.00000 
 43692.65567		 305.27265			43387.38302		68.69600		324.00000 
 43692.65567		 651.83707			43040.81860		145.56400		875.00000 
 43692.65567		 305.27265			43387.38302		68.69600		324.00000 
 43692.65567		 651.83707			43040.81860		145.56400		875.00000 
 43692.65567		 305.27265			43387.38302		68.69600		324.00000 
 43692.65567		 651.83707			43040.81860		145.56400		875.00000 
 43692.65567		 305.27265			43387.38302		68.69600		324.00000 
 43692.65567		 651.83707			43040.81860		145.56400		875.00000 
 43692.65567		 305.27265			43387.38302		68.69600		324.00000 
 43692.65567		 651.83707			43040.81860		145.56400		875.00000 
 43692.65567		 305.27265			43387.38302		68.69600		324.00000 
 43692.65567		 651.83707			43040.81860		145.56400		875.00000 
 43692.65567		 305.27265			43387.38302		68.69600		324.00000 
 43692.65567		 651.83707			43040.81860		145.56400		875.00000 
 43692.65567		 305.27265			43387.38302		68.69600		324.00000 
 43692.65567		 651.83707			43040.81860		145.56400		875.00000 
 43692.65567		 305.27265			43387.38302		68.69600		324.00000 
 43692.65567		 651.83707			43040.81860		145.56400		875.00000 
 43692.65567		 305.27265			43387.38302		68.69600		324.00000 
 43692.65567		 651.83707			43040.81860		145.56400		875.00000 
 43692.65567		 305.27265			43387.38302		68.69600		324.00000 
 43692.65567		 651.83707			43040.81860		145.56400		875.00000 
 43692.65567		 305.27265			43387.38302		68.69600		324.00000 
 43692.65567		 651.83707			43040.81860		145.56400		875.00000 
 43692.65567		 305.27265			43387.38302		68.69600		324.00000 
 43692.65567		 651.83707			43040.81860		145.56400		875.00000 
 43692.65567		 305.27265			43387.38302		68.69600		324.00000 
 43692.65567		 651.83707			43040.81860		145.56400		875.00000 
 43692.65567		 305.27265			43387.38302		68.69600		324.00000 
 43692.65567		 651.83707			43040.81860		145.56400		875.00000 
 43692.65567		 305.27265			43387.38302		68.69600		324.00000 
 43692.65567		 651.83707			43040.81860		145.56400		875.00000 
 43692.65567		 305.27265			43387.38302		68.69600		324.00000 
 43692.65567		 651.83707			43040.81860		145.56400		875.00000 
 43692.65567		 305.27265			43387.38302		68.69600		324.00000 
 43692.65567		 651.83707			43040.81860		145.56400		875.00000 
 43692.65567		 305.27265			43387.38302		68.69600		324.00000 
 43692.65567		 651.83707			43040.81860		145.56400		875.00000 
 43692.65567		 305.27265			43387.38302		68.69600		324.00000 
 43692.65567		 651.83707			43040.81860		145.56400		875.00000 
 43692.65567		 305.27265			43387.38302		68.69600		324.00000 
 43692.65567		 651.83707			43040.81860		145.56400		875.00000 
 43692.65567		 305.27265			43387.38302		68.69600		324.00000 
 43692.65567		 651.83707			43040.81860		145.56400		875.00000 
 43692.65567		 305.27265			43387.38302		68.69600		324.00000 
 43692.65567		 651.83707			43040.81860		145.56400		875.00000 
 43692.65567		 305.27265			43387.38302		68.69600		324.00000 
 43692.65567		 651.83707			43040.81860		145.56400		875.00000 
 43692.65567		 305.27265			43387.38302		68.69600		324.00000 
 43692.65567		 651.83707			43040.81860		145.56400		875.00000 
 43692.65567		 305.27265			43387.38302		68.69600		324.00000 
 43692.65567		 651.83707			43040.81860		145.56400		875.00000 
 43692.65567		 305.27265			43387.38302		68.69600		324.00000 
 43692.65567		 651.83707			43040.81860		145.56400		875.00000 
 43692.65567		 305.27265			43387.38302		68.69600		324.00000 
 43692.65567		 651.83707			43040.81860		145.56400		875.00000 
 43692.65567		 305.27265			43387.38302		68.69600		324.00000 
 43692.65567		 651.83707			43040.81860		145.56400		875.00000 
 43692.65567		 305.27265			43387.38302		68.69600		324.00000 
 43692.65567		 651.83707			43040.81860		145.56400		875.00000 
 43692.65567		 305.27265			43387.38302		68.69600		324.00000 
 43692.65567		 651.83707			43040.81860		145.56400		875.00000 
 43692.65567		 305.27265			43387.38302		68.69600		324.00000 
 43692.65567		 651.83707			43040.81860		145.56400		875.00000 
 43692.65567		 305.27265			43387.38302		68.69600		324.00000 
 43692.65567		 651.83707			43040.81860		145.56400		875.00000 
 43692.65567		 305.27265			43387.38302		68.69600		324.00000 
 43692.65567		 651.83707			43040.81860		145.56400		875.00000 
 43692.65567		 305.27265			43387.38302		68.69600		324.00000 
 43692.65567		 651.83707			43040.81860		145.56400		875.00000 
 43692.65567		 305.27265			43387.38302		68.69600		324.00000 
 43692.65567		 651.83707			43040.81860		145.56400		875.00000 
 43692.65567		 305.27265			43387.38302		68.69600		324.00000 
 43692.65567		 651.83707			43040.81860		145.56400		875.00000 
 43692.65567		 305.27265			43387.38302		68.69600		324.00000 
 43692.65567		 651.83707			43040.81860		145.56400		875.00000 
 43692.65567		 305.27265			43387.38302		68.69600		324.00000 
 43692.65567		 651.83707			43040.81860		145.56400		875.00000 
 43692.65567		 305.27265			43387.38302		68.69600		324.00000 
 43692.65567		 651.83707			43040.81860		145.56400		875.00000 
 43692.65567		 305.27265			43387.38302		68.69600		324.00000 
 43692.65567		 651.83707			43040.81860		145.56400		875.00000 
 43692.65567		 305.27265			43387.38302		68.69600		324.00000 
 43692.65567		 651.83707			43040.81860		145.56400		875.00000 
 43692.65567		 305.27265			43387.38302		68.69600		324.00000 
 43692.65567		 651.83707			43040.81860		145.56400		875.00000 
 43692.65567		 305.27265			43387.38302		68.69600		324.00000 
 43692.65567		 651.83707			43040.81860		145.56400		875.00000 
 43692.65567		 305.27265			43387.38302		68.69600		324.00000 
 43692.65567		 651.83707			43040.81860		145.56400		875.00000 
 43692.65567		 305.27265			43387.38302		68.69600		324.00000 
 43692.65567		 651.83707			43040.81860		145.56400		875.00000 
 43692.65567		 305.27265			43387.38302		68.69600		324.00000 
 43692.65567		 651.83707			43040.81860		145.56400		875.00000 
 43692.65567		 305.27265			43387.38302		68.69600		324.00000 
 43692.65567		 651.83707			43040.81860		145.56400		875.00000 
 43692.65567		 305.27265			43387.38302		68.69600		324.00000 
 43692.65567		 651.83707			43040.81860		191.89200		875.00000 
 43692.65567		 305.27265			43387.38302		68.69600		324.00000 
 43692.65567		 651.83707			43040.81860		191.89200		875.00000 
 43692.65567		 305.27265			43387.38302		68.69600		324.00000 
 43692.65567		 651.83707			43040.81860		191.89200		875.00000 
 43692.65567		 305.27265			43387.38302		68.69600		324.00000 
 43692.65567		 651.83707			43040.81860		191.89200		875.00000 
 43692.65567		 305.27265			43387.38302		68.69600		324.00000 
 43692.65567		 651.83707			43040.81860		191.89200		875.00000 
 43692.65567		 305.27265			43387.38302		68.69600		324.00000 
 43692.65567		 651.83707			43040.81860		191.89200		875.00000 
 43692.65567		 305.27265			43387.38302		68.69600		324.00000 
 43692.65567		 651.83707			43040.81860		191.89200		875.00000 
 43692.65567		 305.27265			43387.38302		68.69600		324.00000 
 43692.65567		 651.83707			43040.81860		191.89200		875.00000 
 43692.65567		 305.27265			43387.38302		68.69600		324.00000 
 43692.65567		 651.83707			43040.81860		191.89200		875.00000 
 43692.65567		 305.27265			43387.38302		68.69600		324.00000 
 43692.65567		 651.83707			43040.81860		191.89200		875.00000 
 43692.65567		 305.27265			43387.38302		68.69600		324.00000 
 43692.65567		 651.83707			43040.81860		191.89200		875.00000 
 43692.65567		 305.27265			43387.38302		68.69600		324.00000 
 43692.65567		 651.83707			43040.81860		191.89200		875.00000 
 43692.65567		 305.27265			43387.38302		68.69600		324.00000 
 43692.65567		 651.83707			43040.81860		191.89200		875.00000 
 43692.65567		 305.27265			43387.38302		68.69600		324.00000 
 43692.65567		 651.83707			43040.81860		191.89200		875.00000 
 43692.65567		 305.27265			43387.38302		68.69600		324.00000 
 43692.65567		 651.83707			43040.81860		191.89200		875.00000 
 43692.65567		 305.27265			43387.38302		68.69600		324.00000 
 43692.65567		 651.83707			43040.81860		191.89200		875.00000 
 43692.65567		 305.27265			43387.38302		68.69600		324.00000 
 43692.65567		 651.83707			43040.81860		191.89200		875.00000 
 43692.65567		 305.27265			43387.38302		68.69600		324.00000 
 43692.65567		 651.83707			43040.81860		191.89200		875.00000 
 43692.65567		 305.27265			43387.38302		68.69600		324.00000 
 43692.65567		 651.83707			43040.81860		191.89200		875.00000 
 43692.65567		 305.27265			43387.38302		68.69600		324.00000 
 43692.65567		 651.83707			43040.81860		191.89200		875.00000 
 43692.65567		 305.27265			43387.38302		68.69600		324.00000 
 43692.65567		 651.83707			43040.81860		191.89200		875.00000 
 43692.65567		 305.27265			43387.38302		68.69600		324.00000 
 43692.65567		 651.83707			43040.81860		191.89200		875.00000 
 43692.65567		 305.27265			43387.38302		68.69600		324.00000 
 43692.65567		 651.83707			43040.81860		191.89200		875.00000 
 43692.65567		 305.27265			43387.38302		68.69600		324.00000 
 43692.65567		 651.83707			43040.81860		191.89200		875.00000 
 43692.65567		 305.27265			43387.38302		68.69600		324.00000 
 43692.65567		 651.83707			43040.81860		191.89200		875.00000 
 43692.65567		 305.27265			43387.38302		68.69600		324.00000 
 43692.65567		 651.83707			43040.81860		191.89200		875.00000 
 43692.65567		 305.27265			43387.38302		68.69600		324.00000 
 43692.65567		 651.83707			43040.81860		191.89200		875.00000 
 43692.65567		 305.27265			43387.38302		68.69600		324.00000 
 43692.65567		 651.83707			43040.81860		191.89200		875.00000 
 43692.65567		 305.27265			43387.38302		68.69600		324.00000 
 43692.65567		 651.83707			43040.81860		191.89200		875.00000 
 43692.65567		 305.27265			43387.38302		68.69600		324.00000 
 43692.65567		 651.83707			43040.81860		191.89200		875.00000 
 43692.65567		 305.27265			43387.38302		68.69600		324.00000 
 43692.65567		 651.83707			43040.81860		191.89200		875.00000 
 43692.65567		 305.27265			43387.38302		68.69600		324.00000 
 43692.65567		 651.83707			43040.81860		191.89200		875.00000 
 43692.65567		 305.27265			43387.38302		68.69600		324.00000 
 43692.65567		 651.83707			43040.81860		191.89200		875.00000 
 43692.65567		 305.27265			43387.38302		68.69600		324.00000 
 43692.65567		 651.83707			43040.81860		191.89200		875.00000 
 43692.65567		 305.27265			43387.38302		68.69600		324.00000 
 43692.65567		 651.83707			43040.81860		191.89200		875.00000 
 43692.65567		 305.27265			43387.38302		68.69600		324.00000 
 43692.65567		 651.83707			43040.81860		191.89200		875.00000 
 43692.65567		 305.27265			43387.38302		68.69600		324.00000 
 43692.65567		 651.83707			43040.81860		191.89200		875.00000 
 43692.65567		 305.27265			43387.38302		68.69600		324.00000 
 43692.65567		 651.83707			43040.81860		191.89200		875.00000 
 43692.65567		 305.27265			43387.38302		68.69600		324.00000 
 43692.65567		 651.83707			43040.81860		191.89200		875.00000 
 43692.65567		 305.27265			43387.38302		68.69600		324.00000 
 43692.65567		 651.83707			43040.81860		191.89200		875.00000 
 43692.65567		 305.27265			43387.38302		68.69600		324.00000 
 43692.65567		 651.83707			43040.81860		191.89200		875.00000 
 43692.65567		 305.27265			43387.38302		68.69600		324.00000 
 43692.65567		 651.83707			43040.81860		191.89200		875.00000 
 43692.65567		 305.27265			43387.38302		68.69600		324.00000 
 43692.65567		 651.83707			43040.81860		191.89200		875.00000 
 43692.65567		 305.27265			43387.38302		68.69600		324.00000 
 43692.65567		 651.83707			43040.81860		191.89200		875.00000 
 43692.65567		 305.27265			43387.38302		68.69600		324.00000 
 43692.65567		 651.83707			43040.81860		191.89200		875.00000 
 43692.65567		 305.27265			43387.38302		68.69600		324.00000 
 43692.65567		 651.83707			43040.81860		191.89200		875.00000 
 43692.65567		 305.27265			43387.38302		68.69600		324.00000 
 43692.65567		 651.83707			43040.81860		191.89200		875.00000 
 43692.65567		 305.27265			43387.38302		68.69600		324.00000 
 43692.65567		 651.83707			43040.81860		191.89200		875.00000 
 43692.65567		 305.27265			43387.38302		68.69600		324.00000 
 43692.65567		 651.83707			43040.81860		191.89200		875.00000 
 43692.65567		 305.27265			43387.38302		68.69600		324.00000 
 43692.65567		 651.83707			43040.81860		191.89200		875.00000 
 43692.65567		 305.27265			43387.38302		68.69600		324.00000 
 43692.65567		 651.83707			43040.81860		191.89200		875.00000 
 43692.65567		 305.27265			43387.38302		68.69600		324.00000 
 43692.65567		 651.83707			43040.81860		191.89200		875.00000 
 43692.65567		 305.27265			43387.38302		68.69600		324.00000 
 43692.65567		 651.83707			43040.81860		191.89200		875.00000 
 43692.65567		 305.27265			43387.38302		68.69600		324.00000 
 43692.65567		 651.83707			43040.81860		191.89200		875.00000 
 43692.65567		 305.27265			43387.38302		68.69600		324.00000 
 43692.65567		 651.83707			43040.81860		191.89200		875.00000 
 43692.65567		 305.27265			43387.38302		68.69600		324.00000 
 43692.65567		 651.83707			43040.81860		191.89200		875.00000 
 43692.65567		 305.27265			43387.38302		68.69600		324.00000 
 43692.65567		 651.83707			43040.81860		191.89200		875.00000 
 43692.65567		 305.27265			43387.38302		68.69600		324.00000 
 43692.65567		 651.83707			43040.81860		191.89200		875.00000 
 43692.65567		 305.27265			43387.38302		68.69600		324.00000 
 43692.65567		 651.83707			43040.81860		191.89200		875.00000 
 43692.65567		 305.27265			43387.38302		68.69600		324.00000 
 43692.65567		 651.83707			43040.81860		191.89200		875.00000 
 43692.65567		 305.27265			43387.38302		68.69600		324.00000 
 43692.65567		 651.83707			43040.81860		191.89200		875.00000 
 43692.65567		 305.27265			43387.38302		68.69600		324.00000 
 43692.65567		 651.83707			43040.81860		210.00600		875.00000 
 43692.65567		 305.27265			43387.38302		68.69600		324.00000 
 43692.65567		 651.83707			43040.81860		210.00600		875.00000 
 43692.65567		 305.27265			43387.38302		68.69600		324.00000 
 43692.65567		 651.83707			43040.81860		210.00600		875.00000 
 43692.65567		 305.27265			43387.38302		68.69600		324.00000 
 43692.65567		 651.83707			43040.81860		210.00600		875.00000 
 43692.65567		 305.27265			43387.38302		68.69600		324.00000 
 43692.65567		 651.83707			43040.81860		210.00600		875.00000 
 43692.65567		 305.27265			43387.38302		68.69600		324.00000 
 43692.65567		 651.83707			43040.81860		210.00600		875.00000 
 43692.65567		 305.27265			43387.38302		68.69600		324.00000 
 43692.65567		 651.83707			43040.81860		210.00600		875.00000 
 43692.65567		 305.27265			43387.38302		68.69600		324.00000 
 43692.65567		 651.83707			43040.81860		210.00600		875.00000 
 43692.65567		 305.27265			43387.38302		68.69600		324.00000 
 43692.65567		 651.83707			43040.81860		210.00600		875.00000 
 43692.65567		 305.27265			43387.38302		68.69600		324.00000 
 43692.65567		 651.83707			43040.81860		210.00600		875.00000 
 43692.65567		 305.27265			43387.38302		68.69600		324.00000 
 43692.65567		 651.83707			43040.81860		210.00600		875.00000 
 43692.65567		 305.27265			43387.38302		68.69600		324.00000 
 43692.65567		 651.83707			43040.81860		210.00600		875.00000 
 43692.65567		 305.27265			43387.38302		68.69600		324.00000 
 43692.65567		 651.83707			43040.81860		210.00600		875.00000 
 43692.65567		 305.27265			43387.38302		68.69600		324.00000 
 43692.65567		 651.83707			43040.81860		210.00600		875.00000 
 43692.65567		 305.27265			43387.38302		68.69600		324.00000 
 43692.65567		 651.83707			43040.81860		210.00600		875.00000 
 43692.65567		 305.27265			43387.38302		68.69600		324.00000 
 43692.65567		 651.83707			43040.81860		210.00600		875.00000 
 43692.65567		 305.27265			43387.38302		68.69600		324.00000 
 43692.65567		 651.83707			43040.81860		210.00600		875.00000 
 43692.65567		 305.27265			43387.38302		68.69600		324.00000 
 43692.65567		 651.83707			43040.81860		210.00600		875.00000 
 43692.65567		 305.27265			43387.38302		68.69600		324.00000 
 43692.65567		 651.83707			43040.81860		210.00600		875.00000 
 43692.65567		 305.27265			43387.38302		68.69600		324.00000 
 43692.65567		 651.83707			43040.81860		210.00600		875.00000 
 43692.65567		 305.27265			43387.38302		68.69600		324.00000 
 43692.65567		 651.83707			43040.81860		210.00600		875.00000 
 43692.65567		 305.27265			43387.38302		68.69600		324.00000 
 43692.65567		 651.83707			43040.81860		210.00600		875.00000 
 43692.65567		 305.27265			43387.38302		68.69600		324.00000 
 43692.65567		 651.83707			43040.81860		210.00600		875.00000 
 43692.65567		 305.27265			43387.38302		68.69600		324.00000 
 43692.65567		 651.83707			43040.81860		210.00600		875.00000 
 43692.65567		 305.27265			43387.38302		68.69600		324.00000 
 43692.65567		 651.83707			43040.81860		210.00600		875.00000 
 43692.65567		 305.27265			43387.38302		68.69600		324.00000 
 43692.65567		 651.83707			43040.81860		210.00600		875.00000 
 43692.65567		 305.27265			43387.38302		68.69600		324.00000 
 43692.65567		 651.83707			43040.81860		210.00600		875.00000 
 43692.65567		 305.27265			43387.38302		68.69600		324.00000 
 43692.65567		 651.83707			43040.81860		210.00600		875.00000 
 43692.65567		 305.27265			43387.38302		68.69600		324.00000 
 43692.65567		 651.83707			43040.81860		210.00600		875.00000 
 43692.65567		 305.27265			43387.38302		68.69600		324.00000 
 43692.65567		 651.83707			43040.81860		210.00600		875.00000 
 43692.65567		 305.27265			43387.38302		68.69600		324.00000 
 43692.65567		 651.83707			43040.81860		210.00600		875.00000 
 43692.65567		 305.27265			43387.38302		68.69600		324.00000 
 43692.65567		 651.83707			43040.81860		210.00600		875.00000 
 43692.65567		 305.27265			43387.38302		68.69600		324.00000 
 43692.65567		 651.83707			43040.81860		210.00600		875.00000 
 43692.65567		 305.27265			43387.38302		68.69600		324.00000 
 43692.65567		 651.83707			43040.81860		210.00600		875.00000 
 43692.65567		 305.27265			43387.38302		68.69600		324.00000 
 43692.65567		 651.83707			43040.81860		210.00600		875.00000 
 43692.65567		 305.27265			43387.38302		68.69600		324.00000 
 43692.65567		 651.83707			43040.81860		210.00600		875.00000 
 43692.65567		 305.27265			43387.38302		68.69600		324.00000 
 43692.65567		 651.83707			43040.81860		210.00600		875.00000 
 43692.65567		 305.27265			43387.38302		68.69600		324.00000 
 43692.65567		 651.83707			43040.81860		210.00600		875.00000 
 43692.65567		 305.27265			43387.38302		68.69600		324.00000 
 43692.65567		 651.83707			43040.81860		210.00600		875.00000 
 43692.65567		 305.27265			43387.38302		68.69600		324.00000 
 43692.65567		 651.83707			43040.81860		210.00600		875.00000 
 43692.65567		 305.27265			43387.38302		68.69600		324.00000 
 43692.65567		 651.83707			43040.81860		210.00600		875.00000 
 43692.65567		 305.27265			43387.38302		68.69600		324.00000 
 43692.65567		 651.83707			43040.81860		210.00600		875.00000 
 43692.65567		 305.27265			43387.38302		68.69600		324.00000 
 43692.65567		 651.83707			43040.81860		210.00600		875.00000 
 43692.65567		 305.27265			43387.38302		68.69600		324.00000 
 43692.65567		 651.83707			43040.81860		210.00600		875.00000 
 43692.65567		 305.27265			43387.38302		68.69600		324.00000 
 43692.65567		 651.83707			43040.81860		210.00600		875.00000 
 43692.65567		 305.27265			43387.38302		68.69600		324.00000 
 43692.65567		 651.83707			43040.81860		210.00600		875.00000 
 43692.65567		 305.27265			43387.38302		68.69600		324.00000 
 43692.65567		 651.83707			43040.81860		210.00600		875.00000 
 43692.65567		 305.27265			43387.38302		68.69600		324.00000 
 43692.65567		 651.83707			43040.81860		210.00600		875.00000 
 43692.65567		 305.27265			43387.38302		68.69600		324.00000 
 43692.65567		 651.83707			43040.81860		210.00600		875.00000 
 43692.65567		 305.27265			43387.38302		68.69600		324.00000 
 43692.65567		 651.83707			43040.81860		210.00600		875.00000 
 43692.65567		 305.27265			43387.38302		68.69600		324.00000 
 43692.65567		 651.83707			43040.81860		210.00600		875.00000 
 43692.65567		 305.27265			43387.38302		68.69600		324.00000 
 43692.65567		 651.83707			43040.81860		210.00600		875.00000 
 43692.65567		 305.27265			43387.38302		68.69600		324.00000 
 43692.65567		 651.83707			43040.81860		210.00600		875.00000 
 43692.65567		 305.27265			43387.38302		68.69600		324.00000 
 43692.65567		 651.83707			43040.81860		210.00600		875.00000 
 43692.65567		 305.27265			43387.38302		68.69600		324.00000 
 43692.65567		 651.83707			43040.81860		210.00600		875.00000 
 43692.65567		 305.27265			43387.38302		68.69600		324.00000 
 43692.65567		 651.83707			43040.81860		210.00600		875.00000 
 43692.65567		 305.27265			43387.38302		68.69600		324.00000 
 43692.65567		 651.83707			43040.81860		210.00600		875.00000 
 43692.65567		 305.27265			43387.38302		68.69600		324.00000 
 43692.65567		 651.83707			43040.81860		210.00600		875.00000 
 43692.65567		 305.27265			43387.38302		68.69600		324.00000 
 43692.65567		 651.83707			43040.81860		210.00600		875.00000 
 43692.65567		 305.27265			43387.38302		68.69600		324.00000 
 43692.65567		 651.83707			43040.81860		210.00600		875.00000 
 43692.65567		 305.27265			43387.38302		68.69600		324.00000 
 43692.65567		 651.83707			43040.81860		210.00600		875.00000 
 43692.65567		 305.27265			43387.38302		68.69600		324.00000 
 43692.65567		 651.83707			43040.81860		210.00600		875.00000 
 43692.65567		 305.27265			43387.38302		68.69600		324.00000 
 43692.65567		 651.83707			43040.81860		210.00600		875.00000 
 43692.65567		 305.27265			43387.38302		68.69600		324.00000 
 43692.65567		 651.83707			43040.81860		210.00600		875.00000 
 43692.65567		 305.27265			43387.38302		68.69600		324.00000 
 43692.65567		 651.83707			43040.81860		217.38000		875.00000 
 43692.65567		 305.27265			43387.38302		68.69600		324.00000 
 43692.65567		 651.83707			43040.81860		217.38000		875.00000 
 43692.65567		 305.27265			43387.38302		68.69600		324.00000 
 43692.65567		 651.83707			43040.81860		217.38000		875.00000 
 43692.65567		 305.27265			43387.38302		68.69600		324.00000 
 43692.65567		 651.83707			43040.81860		217.38000		875.00000 
 43692.65567		 305.27265			43387.38302		68.69600		324.00000 
 43692.65567		 651.83707			43040.81860		217.38000		875.00000 
 43692.65567		 305.27265			43387.38302		68.69600		324.00000 
 43692.65567		 651.83707			43040.81860		217.38000		875.00000 
 43692.65567		 305.27265			43387.38302		68.69600		324.00000 
 43692.65567		 651.83707			43040.81860		217.38000		875.00000 
 43692.65567		 305.27265			43387.38302		68.69600		324.00000 
 43692.65567		 651.83707			43040.81860		217.38000		875.00000 
 43692.65567		 305.27265			43387.38302		68.69600		324.00000 
 43692.65567		 651.83707			43040.81860		217.38000		875.00000 
 43692.65567		 305.27265			43387.38302		68.69600		324.00000 
 43692.65567		 651.83707			43040.81860		217.38000		875.00000 
 43692.65567		 305.27265			43387.38302		68.69600		324.00000 
 43692.65567		 651.83707			43040.81860		217.38000		875.00000 
 43692.65567		 305.27265			43387.38302		68.69600		324.00000 
 43692.65567		 651.83707			43040.81860		217.38000		875.00000 
 43692.65567		 305.27265			43387.38302		68.69600		324.00000 
 43692.65567		 651.83707			43040.81860		217.38000		875.00000 
 43692.65567		 305.27265			43387.38302		68.69600		324.00000 
 43692.65567		 651.83707			43040.81860		217.38000		875.00000 
 43692.65567		 305.27265			43387.38302		68.69600		324.00000 
 43692.65567		 651.83707			43040.81860		217.38000		875.00000 
 43692.65567		 305.27265			43387.38302		68.69600		324.00000 
 43692.65567		 651.83707			43040.81860		217.38000		875.00000 
 43692.65567		 305.27265			43387.38302		68.69600		324.00000 
 43692.65567		 651.83707			43040.81860		217.38000		875.00000 
 43692.65567		 305.27265			43387.38302		68.69600		324.00000 
 43692.65567		 651.83707			43040.81860		217.38000		875.00000 
 43692.65567		 305.27265			43387.38302		68.69600		324.00000 
 43692.65567		 651.83707			43040.81860		217.38000		875.00000 
 43692.65567		 305.27265			43387.38302		68.69600		324.00000 
 43692.65567		 651.83707			43040.81860		217.38000		875.00000 
 43692.65567		 305.27265			43387.38302		68.69600		324.00000 
 43692.65567		 651.83707			43040.81860		217.38000		875.00000 
 43692.65567		 305.27265			43387.38302		68.69600		324.00000 
 43692.65567		 651.83707			43040.81860		217.38000		875.00000 
 43692.65567		 305.27265			43387.38302		68.69600		324.00000 
 43692.65567		 651.83707			43040.81860		217.38000		875.00000 
 43692.65567		 305.27265			43387.38302		68.69600		324.00000 
 43692.65567		 651.83707			43040.81860		217.38000		875.00000 
 43692.65567		 305.27265			43387.38302		68.69600		324.00000 
 43692.65567		 651.83707			43040.81860		217.38000		875.00000 
 43692.65567		 305.27265			43387.38302		68.69600		324.00000 
 43692.65567		 651.83707			43040.81860		217.38000		875.00000 
 43692.65567		 305.27265			43387.38302		68.69600		324.00000 
 43692.65567		 651.83707			43040.81860		217.38000		875.00000 
 43692.65567		 305.27265			43387.38302		68.69600		324.00000 
 43692.65567		 651.83707			43040.81860		217.38000		875.00000 
 43692.65567		 305.27265			43387.38302		68.69600		324.00000 
 43692.65567		 651.83707			43040.81860		217.38000		875.00000 
 43692.65567		 305.27265			43387.38302		68.69600		324.00000 
 43692.65567		 651.83707			43040.81860		217.38000		875.00000 
 43692.65567		 305.27265			43387.38302		68.69600		324.00000 
 43692.65567		 651.83707			43040.81860		217.38000		875.00000 
 43692.65567		 305.27265			43387.38302		68.69600		324.00000 
 43692.65567		 651.83707			43040.81860		217.38000		875.00000 
 43692.65567		 305.27265			43387.38302		68.69600		324.00000 
 43692.65567		 651.83707			43040.81860		217.38000		875.00000 
 43692.65567		 305.27265			43387.38302		68.69600		324.00000 
 43692.65567		 651.83707			43040.81860		217.38000		875.00000 
 43692.65567		 305.27265			43387.38302		68.69600		324.00000 
 43692.65567		 651.83707			43040.81860		217.38000		875.00000 
 43692.65567		 305.27265			43387.38302		68.69600		324.00000 
 43692.65567		 651.83707			43040.81860		217.38000		875.00000 
 43692.65567		 305.27265			43387.38302		68.69600		324.00000 
 43692.65567		 651.83707			43040.81860		217.38000		875.00000 
 43692.65567		 305.27265			43387.38302		68.69600		324.00000 
 43692.65567		 651.83707			43040.81860		217.38000		875.00000 
 43692.65567		 305.27265			43387.38302		68.69600		324.00000 
 43692.65567		 651.83707			43040.81860		217.38000		875.00000 
 43692.65567		 305.27265			43387.38302		68.69600		324.00000 
 43692.65567		 651.83707			43040.81860		217.38000		875.00000 
 43692.65567		 305.27265			43387.38302		68.69600		324.00000 
 43692.65567		 651.83707			43040.81860		217.38000		875.00000 
 43692.65567		 305.27265			43387.38302		68.69600		324.00000 
 43692.65567		 651.83707			43040.81860		217.38000		875.00000 
 43692.65567		 305.27265			43387.38302		68.69600		324.00000 
 43692.65567		 651.83707			43040.81860		217.38000		875.00000 
 43692.65567		 305.27265			43387.38302		68.69600		324.00000 
 43692.65567		 651.83707			43040.81860		217.38000		875.00000 
 43692.65567		 305.27265			43387.38302		68.69600		324.00000 
 43692.65567		 651.83707			43040.81860		217.38000		875.00000 
 43692.65567		 305.27265			43387.38302		68.69600		324.00000 
 43692.65567		 651.83707			43040.81860		217.38000		875.00000 
 43692.65567		 305.27265			43387.38302		68.69600		324.00000 
 43692.65567		 651.83707			43040.81860		217.38000		875.00000 
 43692.65567		 305.27265			43387.38302		68.69600		324.00000 
 43692.65567		 651.83707			43040.81860		217.38000		875.00000 
 43692.65567		 305.27265			43387.38302		68.69600		324.00000 
 43692.65567		 651.83707			43040.81860		217.38000		875.00000 
 43692.65567		 305.27265			43387.38302		68.69600		324.00000 
 43692.65567		 651.83707			43040.81860		217.38000		875.00000 
 43692.65567		 305.27265			43387.38302		68.69600		324.00000 
 43692.65567		 651.83707			43040.81860		217.38000		875.00000 
 43692.65567		 305.27265			43387.38302		68.69600		324.00000 
 43692.65567		 651.83707			43040.81860		217.38000		875.00000 
 43692.65567		 305.27265			43387.38302		68.69600		324.00000 
 43692.65567		 651.83707			43040.81860		217.38000		875.00000 
 43692.65567		 305.27265			43387.38302		68.69600		324.00000 
 43692.65567		 651.83707			43040.81860		217.38000		875.00000 
 43692.65567		 305.27265			43387.38302		68.69600		324.00000 
 43692.65567		 651.83707			43040.81860		217.38000		875.00000 
 43692.65567		 305.27265			43387.38302		68.69600		324.00000 
 43692.65567		 651.83707			43040.81860		217.38000		875.00000 
 43692.65567		 305.27265			43387.38302		68.69600		324.00000 
 43692.65567		 651.83707			43040.81860		217.38000		875.00000 
 43692.65567		 305.27265			43387.38302		68.69600		324.00000 
 43692.65567		 651.83707			43040.81860		217.38000		875.00000 
 43692.65567		 305.27265			43387.38302		68.69600		324.00000 
 43692.65567		 651.83707			43040.81860		217.38000		875.00000 
 43692.65567		 305.27265			43387.38302		68.69600		324.00000 
 43692.65567		 651.83707			43040.81860		217.38000		875.00000 
 43692.65567		 305.27265			43387.38302		68.69600		324.00000 
 43692.65567		 651.83707			43040.81860		217.38000		875.00000 
 43692.65567		 305.27265			43387.38302		68.69600		324.00000 
 43692.65567		 651.83707			43040.81860		217.38000		875.00000 
 43692.65567		 305.27265			43387.38302		68.69600		324.00000 
 43692.65567		 651.83707			43040.81860		217.38000		875.00000 
 43692.65567		 305.27265			43387.38302		68.69600		324.00000 
 43692.65567		 651.83707			43040.81860		217.38000		875.00000 
 43692.65567		 305.27265			43387.38302		68.69600		324.00000 
 43692.65567		 651.83707			43040.81860		220.31200		875.00000 
 43692.65567		 305.27265			43387.38302		68.69600		324.00000 
 43692.65567		 651.83707			43040.81860		220.31200		875.00000 
 43692.65567		 305.27265			43387.38302		68.69600		324.00000 
 43692.65567		 651.83707			43040.81860		220.31200		875.00000 
 43692.65567		 305.27265			43387.38302		68.69600		324.00000 
 43692.65567		 651.83707			43040.81860		220.31200		875.00000 
 43692.65567		 305.27265			43387.38302		68.69600		324.00000 
 43692.65567		 651.83707			43040.81860		220.31200		875.00000 
 43692.65567		 305.27265			43387.38302		68.69600		324.00000 
 43692.65567		 651.83707			43040.81860		220.31200		875.00000 
 43692.65567		 305.27265			43387.38302		68.69600		324.00000 
 43692.65567		 651.83707			43040.81860		220.31200		875.00000 
 43692.65567		 305.27265			43387.38302		68.69600		324.00000 
 43692.65567		 651.83707			43040.81860		220.31200		875.00000 
 43692.65567		 305.27265			43387.38302		68.69600		324.00000 
 43692.65567		 651.83707			43040.81860		220.31200		875.00000 
 43692.65567		 305.27265			43387.38302		68.69600		324.00000 
 43692.65567		 651.83707			43040.81860		220.31200		875.00000 
 43692.65567		 305.27265			43387.38302		68.69600		324.00000 
 43692.65567		 651.83707			43040.81860		220.31200		875.00000 
 43692.65567		 305.27265			43387.38302		68.69600		324.00000 
 43692.65567		 651.83707			43040.81860		220.31200		875.00000 
 43692.65567		 305.27265			43387.38302		68.69600		324.00000 
 43692.65567		 651.83707			43040.81860		220.31200		875.00000 
 43692.65567		 305.27265			43387.38302		68.69600		324.00000 
 43692.65567		 651.83707			43040.81860		220.31200		875.00000 
 43692.65567		 305.27265			43387.38302		68.69600		324.00000 
 43692.65567		 651.83707			43040.81860		220.31200		875.00000 
 43692.65567		 305.27265			43387.38302		68.69600		324.00000 
 43692.65567		 651.83707			43040.81860		220.31200		875.00000 
 43692.65567		 305.27265			43387.38302		68.69600		324.00000 
 43692.65567		 651.83707			43040.81860		220.31200		875.00000 
 43692.65567		 305.27265			43387.38302		68.69600		324.00000 
 43692.65567		 651.83707			43040.81860		220.31200		875.00000 
 43692.65567		 305.27265			43387.38302		68.69600		324.00000 
 43692.65567		 651.83707			43040.81860		220.31200		875.00000 
 43692.65567		 305.27265			43387.38302		68.69600		324.00000 
 43692.65567		 651.83707			43040.81860		220.31200		875.00000 
 43692.65567		 305.27265			43387.38302		68.69600		324.00000 
 43692.65567		 651.83707			43040.81860		220.31200		875.00000 
 43692.65567		 305.27265			43387.38302		68.69600		324.00000 
 43692.65567		 651.83707			43040.81860		220.31200		875.00000 
 43692.65567		 305.27265			43387.38302		68.69600		324.00000 
 43692.65567		 651.83707			43040.81860		220.31200		875.00000 
 43692.65567		 305.27265			43387.38302		68.69600		324.00000 
 43692.65567		 651.83707			43040.81860		220.31200		875.00000 
 43692.65567		 305.27265			43387.38302		68.69600		324.00000 
 43692.65567		 651.83707			43040.81860		220.31200		875.00000 
 43692.65567		 305.27265			43387.38302		68.69600		324.00000 
 43692.65567		 651.83707			43040.81860		220.31200		875.00000 
 43692.65567		 305.27265			43387.38302		68.69600		324.00000 
 43692.65567		 651.83707			43040.81860		220.31200		875.00000 
 43692.65567		 305.27265			43387.38302		68.69600		324.00000 
 43692.65567		 651.83707			43040.81860		220.31200		875.00000 
 43692.65567		 305.27265			43387.38302		68.69600		324.00000 
 43692.65567		 651.83707			43040.81860		220.31200		875.00000 
 43692.65567		 305.27265			43387.38302		68.69600		324.00000 
 43692.65567		 651.83707			43040.81860		220.31200		875.00000 
 43692.65567		 305.27265			43387.38302		68.69600		324.00000 
 43692.65567		 651.83707			43040.81860		220.31200		875.00000 
 43692.65567		 305.27265			43387.38302		68.69600		324.00000 
 43692.65567		 651.83707			43040.81860		220.31200		875.00000 
 43692.65567		 305.27265			43387.38302		68.69600		324.00000 
 43692.65567		 651.83707			43040.81860		220.31200		875.00000 
 43692.65567		 305.27265			43387.38302		68.69600		324.00000 
 43692.65567		 651.83707			43040.81860		220.31200		875.00000 
 43692.65567		 305.27265			43387.38302		68.69600		324.00000 
 43692.65567		 651.83707			43040.81860		220.31200		875.00000 
 43692.65567		 305.27265			43387.38302		68.69600		324.00000 
 43692.65567		 651.83707			43040.81860		220.31200		875.00000 
 43692.65567		 305.27265			43387.38302		68.69600		324.00000 
 43692.65567		 651.83707			43040.81860		220.31200		875.00000 
 43692.65567		 305.27265			43387.38302		68.69600		324.00000 
 43692.65567		 651.83707			43040.81860		220.31200		875.00000 
 43692.65567		 305.27265			43387.38302		68.69600		324.00000 
 43692.65567		 651.83707			43040.81860		220.31200		875.00000 
 43692.65567		 305.27265			43387.38302		68.69600		324.00000 
 43692.65567		 651.83707			43040.81860		220.31200		875.00000 
 43692.65567		 305.27265			43387.38302		68.69600		324.00000 
 43692.65567		 651.83707			43040.81860		220.31200		875.00000 
 43692.65567		 305.27265			43387.38302		68.69600		324.00000 
 43692.65567		 651.83707			43040.81860		220.31200		875.00000 
 43692.65567		 305.27265			43387.38302		68.69600		324.00000 
 43692.65567		 651.83707			43040.81860		220.31200		875.00000 
 43692.65567		 305.27265			43387.38302		68.69600		324.00000 
 43692.65567		 651.83707			43040.81860		220.31200		875.00000 
 43692.65567		 305.27265			43387.38302		68.69600		324.00000 
 43692.65567		 651.83707			43040.81860		220.31200		875.00000 
 43692.65567		 305.27265			43387.38302		68.69600		324.00000 
 43692.65567		 651.83707			43040.81860		220.31200		875.00000 
 43692.65567		 305.27265			43387.38302		68.69600		324.00000 
 43692.65567		 651.83707			43040.81860		220.31200		875.00000 
 43692.65567		 305.27265			43387.38302		68.69600		324.00000 
 43692.65567		 651.83707			43040.81860		220.31200		875.00000 
 43692.65567		 305.27265			43387.38302		68.69600		324.00000 
 43692.65567		 651.83707			43040.81860		220.31200		875.00000 
 43692.65567		 305.27265			43387.38302		68.69600		324.00000 
 43692.65567		 651.83707			43040.81860		220.31200		875.00000 
 43692.65567		 305.27265			43387.38302		68.69600		324.00000 
 43692.65567		 651.83707			43040.81860		220.31200		875.00000 
 43692.65567		 305.27265			43387.38302		68.69600		324.00000 
 43692.65567		 651.83707			43040.81860		220.31200		875.00000 
 43692.65567		 305.27265			43387.38302		68.69600		324.00000 
 43692.65567		 651.83707			43040.81860		220.31200		875.00000 
 43692.65567		 305.27265			43387.38302		68.69600		324.00000 
 43692.65567		 651.83707			43040.81860		220.31200		875.00000 
 43692.65567		 305.27265			43387.38302		68.69600		324.00000 
 43692.65567		 651.83707			43040.81860		220.31200		875.00000 
 43692.65567		 305.27265			43387.38302		68.69600		324.00000 
 43692.65567		 651.83707			43040.81860		220.31200		875.00000 
 43692.65567		 305.27265			43387.38302		68.69600		324.00000 
 43692.65567		 651.83707			43040.81860		220.31200		875.00000 
 43692.65567		 305.27265			43387.38302		68.69600		324.00000 
 43692.65567		 651.83707			43040.81860		220.31200		875.00000 
 43692.65567		 305.27265			43387.38302		68.69600		324.00000 
 43692.65567		 651.83707			43040.81860		220.31200		875.00000 
 43692.65567		 305.27265			43387.38302		68.69600		324.00000 
 43692.65567		 651.83707			43040.81860		220.31200		875.00000 
 43692.65567		 305.27265			43387.38302		68.69600		324.00000 
 43692.65567		 651.83707			43040.81860		220.31200		875.00000 
 43692.65567		 305.27265			43387.38302		68.69600		324.00000 
 43692.65567		 651.83707			43040.81860		220.31200		875.00000 
 43692.65567		 305.27265			43387.38302		68.69600		324.00000 
 43692.65567		 651.83707			43040.81860		220.31200		875.00000 
 43692.65567		 305.27265			43387.38302		68.69600		324.00000 
 43692.65567		 651.83707			43040.81860		220.31200		875.00000 
 43692.65567		 305.27265			43387.38302		68.69600		324.00000 
 43692.65567		 651.83707			43040.81860		220.50000		875.00000 
 43692.65567		 305.27265			43387.38302		68.69600		324.00000 
 43692.65567		 651.83707			43040.81860		220.50000		875.00000 
 43692.65567		 305.27265			43387.38302		68.69600		324.00000 
 43692.65567		 651.83707			43040.81860		220.50000		875.00000 
 43692.65567		 305.27265			43387.38302		68.69600		324.00000 
 43692.65567		 651.83707			43040.81860		220.50000		875.00000 
 43692.65567		 305.27265			43387.38302		68.69600		324.00000 
 43692.65567		 651.83707			43040.81860		220.50000		875.00000 
 43692.65567		 305.27265			43387.38302		68.69600		324.00000 
 43692.65567		 651.83707			43040.81860		220.50000		875.00000 
 43692.65567		 305.27265			43387.38302		68.69600		324.00000 
 43692.65567		 651.83707			43040.81860		220.50000		875.00000 
 43692.65567		 305.27265			43387.38302		68.69600		324.00000 
 43692.65567		 651.83707			43040.81860		220.50000		875.00000 
 43692.65567		 305.27265			43387.38302		68.69600		324.00000 
 43692.65567		 651.83707			43040.81860		220.50000		875.00000 
 43692.65567		 305.27265			43387.38302		68.69600		324.00000 
 43692.65567		 651.83707			43040.81860		220.50000		875.00000 
 43692.65567		 305.27265			43387.38302		68.69600		324.00000 
 43692.65567		 651.83707			43040.81860		220.50000		875.00000 
 43692.65567		 305.27265			43387.38302		68.69600		324.00000 
 43692.65567		 651.83707			43040.81860		220.50000		875.00000 
 43692.65567		 305.27265			43387.38302		68.69600		324.00000 
 43692.65567		 651.83707			43040.81860		220.50000		875.00000 
 43692.65567		 305.27265			43387.38302		68.69600		324.00000 
 43692.65567		 651.83707			43040.81860		220.50000		875.00000 
 43692.65567		 305.27265			43387.38302		68.69600		324.00000 
 43692.65567		 651.83707			43040.81860		220.50000		875.00000 
 43692.65567		 305.27265			43387.38302		68.69600		324.00000 
 43692.65567		 651.83707			43040.81860		220.50000		875.00000 
 43692.65567		 305.27265			43387.38302		68.69600		324.00000 
 43692.65567		 651.83707			43040.81860		220.50000		875.00000 
 43692.65567		 305.27265			43387.38302		68.69600		324.00000 
 43692.65567		 651.83707			43040.81860		220.50000		875.00000 
 43692.65567		 305.27265			43387.38302		68.69600		324.00000 
 43692.65567		 651.83707			43040.81860		220.50000		875.00000 
 43692.65567		 305.27265			43387.38302		68.69600		324.00000 
 43692.65567		 651.83707			43040.81860		220.50000		875.00000 
 43692.65567		 305.27265			43387.38302		68.69600		324.00000 
 43692.65567		 651.83707			43040.81860		220.50000		875.00000 
 43692.65567		 305.27265			43387.38302		68.69600		324.00000 
 43692.65567		 651.83707			43040.81860		220.50000		875.00000 
 43692.65567		 305.27265			43387.38302		68.69600		324.00000 
 43692.65567		 651.83707			43040.81860		220.50000		875.00000 
 43692.65567		 305.27265			43387.38302		68.69600		324.00000 
 43692.65567		 651.83707			43040.81860		220.50000		875.00000 
 43692.65567		 305.27265			43387.38302		68.69600		324.00000 
 43692.65567		 651.83707			43040.81860		220.50000		875.00000 
 43692.65567		 305.27265			43387.38302		68.69600		324.00000 
 43692.65567		 651.83707			43040.81860		220.50000		875.00000 
 43692.65567		 305.27265			43387.38302		68.69600		324.00000 
 43692.65567		 651.83707			43040.81860		220.50000		875.00000 
 43692.65567		 305.27265			43387.38302		68.69600		324.00000 
 43692.65567		 651.83707			43040.81860		220.50000		875.00000 
 43692.65567		 305.27265			43387.38302		68.69600		324.00000 
 43692.65567		 651.83707			43040.81860		220.50000		875.00000 
 43692.65567		 305.27265			43387.38302		68.69600		324.00000 
 43692.65567		 651.83707			43040.81860		220.50000		875.00000 
 43692.65567		 305.27265			43387.38302		68.69600		324.00000 
 43692.65567		 651.83707			43040.81860		220.50000		875.00000 
 43692.65567		 305.27265			43387.38302		68.69600		324.00000 
 43692.65567		 651.83707			43040.81860		220.50000		875.00000 
 43692.65567		 305.27265			43387.38302		68.69600		324.00000 
 43692.65567		 651.83707			43040.81860		220.50000		875.00000 
 43692.65567		 305.27265			43387.38302		68.69600		324.00000 
 43692.65567		 651.83707			43040.81860		220.50000		875.00000 
 43692.65567		 305.27265			43387.38302		68.69600		324.00000 
 43692.65567		 651.83707			43040.81860		220.50000		875.00000 
 43692.65567		 305.27265			43387.38302		68.69600		324.00000 
 43692.65567		 651.83707			43040.81860		220.50000		875.00000 
 43692.65567		 305.27265			43387.38302		68.69600		324.00000 
 43692.65567		 651.83707			43040.81860		220.50000		875.00000 
 43692.65567		 305.27265			43387.38302		68.69600		324.00000 
 43692.65567		 651.83707			43040.81860		220.50000		875.00000 
 43692.65567		 305.27265			43387.38302		68.69600		324.00000 
 43692.65567		 651.83707			43040.81860		220.50000		875.00000 
 43692.65567		 305.27265			43387.38302		68.69600		324.00000 
 43692.65567		 651.83707			43040.81860		220.50000		875.00000 
 43692.65567		 305.27265			43387.38302		68.69600		324.00000 
 43692.65567		 651.83707			43040.81860		220.50000		875.00000 
 43692.65567		 305.27265			43387.38302		68.69600		324.00000 
 43692.65567		 651.83707			43040.81860		220.50000		875.00000 
 43692.65567		 305.27265			43387.38302		68.69600		324.00000 
 43692.65567		 651.83707			43040.81860		220.50000		875.00000 
 43692.65567		 305.27265			43387.38302		68.69600		324.00000 
 43692.65567		 651.83707			43040.81860		220.50000		875.00000 
 43692.65567		 305.27265			43387.38302		68.69600		324.00000 
 43692.65567		 651.83707			43040.81860		220.50000		875.00000 
 43692.65567		 305.27265			43387.38302		68.69600		324.00000 
 43692.65567		 651.83707			43040.81860		220.50000		875.00000 
 43692.65567		 305.27265			43387.38302		68.69600		324.00000 
 43692.65567		 651.83707			43040.81860		220.50000		875.00000 
 43692.65567		 305.27265			43387.38302		68.69600		324.00000 
 43692.65567		 651.83707			43040.81860		220.50000		875.00000 
 43692.65567		 305.27265			43387.38302		68.69600		324.00000 
 43692.65567		 651.83707			43040.81860		220.50000		875.00000 
 43692.65567		 305.27265			43387.38302		68.69600		324.00000 
 43692.65567		 651.83707			43040.81860		220.50000		875.00000 
 43692.65567		 305.27265			43387.38302		68.69600		324.00000 
 43692.65567		 651.83707			43040.81860		220.50000		875.00000 
 43692.65567		 305.27265			43387.38302		68.69600		324.00000 
 43692.65567		 651.83707			43040.81860		220.50000		875.00000 
 43692.65567		 305.27265			43387.38302		68.69600		324.00000 
 43692.65567		 651.83707			43040.81860		220.50000		875.00000 
 43692.65567		 305.27265			43387.38302		68.69600		324.00000 
 43692.65567		 651.83707			43040.81860		220.50000		875.00000 
 43692.65567		 305.27265			43387.38302		68.69600		324.00000 
 43692.65567		 651.83707			43040.81860		220.50000		875.00000 
 43692.65567		 305.27265			43387.38302		68.69600		324.00000 
 43692.65567		 651.83707			43040.81860		220.50000		875.00000 
 43692.65567		 305.27265			43387.38302		68.69600		324.00000 
 43692.65567		 651.83707			43040.81860		220.50000		875.00000 
 43692.65567		 305.27265			43387.38302		68.69600		324.00000 
 43692.65567		 651.83707			43040.81860		220.50000		875.00000 
 43692.65567		 305.27265			43387.38302		68.69600		324.00000 
 43692.65567		 651.83707			43040.81860		220.50000		875.00000 
 43692.65567		 305.27265			43387.38302		68.69600		324.00000 
 43692.65567		 651.83707			43040.81860		220.50000		875.00000 
 43692.65567		 305.27265			43387.38302		68.69600		324.00000 
 43692.65567		 651.83707			43040.81860		220.50000		875.00000 
 43692.65567		 305.27265			43387.38302		68.69600		324.00000 
 43692.65567		 651.83707			43040.81860		220.50000		875.00000 
 43692.65567		 305.27265			43387.38302		68.69600		324.00000 
 43692.65567		 651.83707			43040.81860		220.50000		875.00000 
 43692.65567		 305.27265			43387.38302		68.69600		324.00000 
 43692.65567		 651.83707			43040.81860		220.50000		875.00000 
 43692.65567		 305.27265			43387.38302		68.69600		324.00000 
 43692.65567		 651.83707			43040.81860		220.50000		875.00000 
 43692.65567		 305.27265			43387.38302		68.69600		324.00000 
 43692.65567		 651.83707			43040.81860		220.50000		875.00000 
 43692.65567		 305.27265			43387.38302		68.69600		324.00000 
 43692.65567		 651.83707			43040.81860		220.50000		875.00000 
 43692.65567		 305.27265			43387.38302		68.69600		324.00000 
 43692.65567		 651.83707			43040.81860		220.50000		875.00000 
 43692.65567		 305.27265			43387.38302		68.69600		324.00000 
 43692.65567		 651.83707			43040.81860		220.50000		875.00000 
 43692.65567		 305.27265			43387.38302		68.69600		324.00000 
 43692.65567		 651.83707			43040.81860		220.50000		875.00000 
 43692.65567		 305.27265			43387.38302		68.69600		324.00000 
 43692.65567		 651.83707			43040.81860		220.50000		875.00000 
 43692.65567		 305.27265			43387.38302		68.69600		324.00000 
 43692.65567		 651.83707			43040.81860		220.50000		875.00000 
 43692.65567		 305.27265			43387.38302		68.69600		324.00000 
 43692.65567		 651.83707			43040.81860		220.50000		875.00000 
 43692.65567		 305.27265			43387.38302		68.69600		324.00000 
 43692.65567		 651.83707			43040.81860		220.50000		875.00000 
 43692.65567		 305.27265			43387.38302		68.69600		324.00000 
 43692.65567		 651.83707			43040.81860		220.50000		875.00000 
 43692.65567		 305.27265			43387.38302		68.69600		324.00000 
 43692.65567		 651.83707			43040.81860		220.50000		875.00000 
 43692.65567		 305.27265			43387.38302		68.69600		324.00000 
 43692.65567		 651.83707			43040.81860		220.50000		875.00000 
 43692.65567		 305.27265			43387.38302		68.69600		324.00000 
 43692.65567		 651.83707			43040.81860		220.50000		875.00000 
 43692.65567		 305.27265			43387.38302		68.69600		324.00000 
 43692.65567		 651.83707			43040.81860		220.50000		875.00000 
 43692.65567		 305.27265			43387.38302		68.69600		324.00000 
 43692.65567		 651.83707			43040.81860		220.50000		875.00000 
 43692.65567		 305.27265			43387.38302		68.69600		324.00000 
 43692.65567		 651.83707			43040.81860		220.50000		875.00000 
 43692.65567		 305.27265			43387.38302		68.69600		324.00000 
 43692.65567		 651.83707			43040.81860		220.50000		875.00000 
 43692.65567		 305.27265			43387.38302		68.69600		324.00000 
 43692.65567		 651.83707			43040.81860		220.50000		875.00000 
 43692.65567		 305.27265			43387.38302		68.69600		324.00000 
 43692.65567		 651.83707			43040.81860		220.50000		875.00000 
 43692.65567		 305.27265			43387.38302		68.69600		324.00000 
 43692.65567		 651.83707			43040.81860		220.50000		875.00000 
 43692.65567		 305.27265			43387.38302		68.69600		324.00000 
 43692.65567		 651.83707			43040.81860		220.50000		875.00000 
 43692.65567		 305.27265			43387.38302		68.69600		324.00000 
 43692.65567		 651.83707			43040.81860		220.50000		875.00000 
 43692.65567		 305.27265			43387.38302		68.69600		324.00000 
 43692.65567		 651.83707			43040.81860		220.50000		875.00000 
 43692.65567		 305.27265			43387.38302		68.69600		324.00000 
 43692.65567		 651.83707			43040.81860		220.50000		875.00000 
 43692.65567		 305.27265			43387.38302		68.69600		324.00000 
 43692.65567		 651.83707			43040.81860		220.50000		875.00000 
 43692.65567		 305.27265			43387.38302		68.69600		324.00000 
 43692.65567		 651.83707			43040.81860		220.50000		875.00000 
 43692.65567		 305.27265			43387.38302		68.69600		324.00000 
 43692.65567		 651.83707			43040.81860		220.50000		875.00000 
 43692.65567		 305.27265			43387.38302		68.69600		324.00000 
 43692.65567		 575.45924			43117.19643		220.50000		875.00000 
 43692.65567		 305.27265			43387.38302		68.69600		324.00000 
 43692.65567		 537.27032			43155.38535		220.50000		875.00000 
 43692.65567		 305.27265			43387.38302		68.69600		324.00000 
 43692.65567		 537.27032			43155.38535		220.50000		875.00000 
 43692.65567		 305.27265			43387.38302		68.69600		324.00000 
 43692.65567		 537.27032			43155.38535		220.50000		875.00000 
 43692.65567		 305.27265			43387.38302		68.69600		324.00000 
 43692.65567		 537.27032			43155.38535		220.50000		875.00000 
 43692.65567		 305.27265			43387.38302		68.69600		324.00000 
 43692.65567		 537.27032			43155.38535		220.50000		875.00000 
 43692.65567		 305.27265			43387.38302		68.69600		324.00000 
 43692.65567		 537.27032			43155.38535		220.50000		875.00000 
 43692.65567		 305.27265			43387.38302		68.69600		324.00000 
 43692.65567		 537.27032			43155.38535		220.50000		875.00000 
 43692.65567		 305.27265			43387.38302		68.69600		324.00000 
 43692.65567		 537.27032			43155.38535		220.50000		875.00000 
 43692.65567		 305.27265			43387.38302		68.69600		324.00000 
 43692.65567		 537.27032			43155.38535		220.50000		875.00000 
 43692.65567		 305.27265			43387.38302		68.69600		324.00000 
 43692.65567		 537.27032			43155.38535		220.50000		875.00000 
 43692.65567		 305.27265			43387.38302		68.69600		324.00000 
 43692.65567		 537.27032			43155.38535		220.50000		875.00000 
 43692.65567		 305.27265			43387.38302		68.69600		324.00000 
 43692.65567		 537.27032			43155.38535		220.50000		875.00000 
 43692.65567		 305.27265			43387.38302		68.69600		324.00000 
 43692.65567		 537.27032			43155.38535		220.50000		875.00000 
 43692.65567		 305.27265			43387.38302		68.69600		324.00000 
 43692.65567		 537.27032			43155.38535		220.50000		875.00000 
 43692.65567		 305.27265			43387.38302		68.69600		324.00000 
 43692.65567		 537.27032			43155.38535		220.50000		875.00000 
 43692.65567		 305.27265			43387.38302		68.69600		324.00000 
 43692.65567		 537.27032			43155.38535		220.50000		875.00000 
 43692.65567		 305.27265			43387.38302		68.69600		324.00000 
 43692.65567		 537.27032			43155.38535		220.50000		875.00000 
 43692.65567		 305.27265			43387.38302		68.69600		324.00000 
 43692.65567		 537.27032			43155.38535		220.50000		875.00000 
 43692.65567		 305.27265			43387.38302		68.69600		324.00000 
 43692.65567		 537.27032			43155.38535		220.50000		875.00000 
 43692.65567		 305.27265			43387.38302		68.69600		324.00000 
 43692.65567		 537.27032			43155.38535		220.50000		875.00000 
 43692.65567		 305.27265			43387.38302		68.69600		324.00000 
 43692.65567		 537.27032			43155.38535		220.50000		875.00000 
 43692.65567		 305.27265			43387.38302		68.69600		324.00000 
 43692.65567		 529.63254			43163.02313		220.50000		875.00000 
 43692.65567		 305.27265			43387.38302		68.69600		324.00000 
 43692.65567		 525.81365			43166.84203		220.50000		875.00000 
 43692.65567		 305.27265			43387.38302		68.69600		324.00000 
 43692.65567		 525.81365			43166.84203		183.03800		875.00000 
 43692.65567		 261.35540			43431.30027		68.69600		324.00000 
