Memory Total (MiB) 	 Memory Used (MiB) 	    Memory Free (MiB) 	 Power Drawed (W) 	 Clocks (Mhz) 	 
 43692.65567		 261.35540			43431.30027		213.65600		875.00000 
 43692.65567		 261.35540			43431.30027		68.11000		324.00000 
 43692.65567		 261.35540			43431.30027		213.65600		875.00000 
 43692.65567		 261.35540			43431.30027		68.11000		324.00000 
 43692.65567		 261.35540			43431.30027		213.65600		875.00000 
 43692.65567		 261.35540			43431.30027		68.11000		324.00000 
 43692.65567		 261.35540			43431.30027		213.65600		875.00000 
 43692.65567		 261.35540			43431.30027		68.11000		324.00000 
 43692.65567		 261.35540			43431.30027		166.44200		875.00000 
 43692.65567		 261.35540			43431.30027		68.11000		324.00000 
 43692.65567		 261.35540			43431.30027		166.44200		875.00000 
 43692.65567		 261.35540			43431.30027		68.11000		324.00000 
 43692.65567		 261.35540			43431.30027		166.44200		875.00000 
 43692.65567		 261.35540			43431.30027		68.11000		324.00000 
 43692.65567		 261.35540			43431.30027		166.44200		875.00000 
 43692.65567		 261.35540			43431.30027		68.11000		324.00000 
 43692.65567		 261.35540			43431.30027		166.44200		875.00000 
 43692.65567		 261.35540			43431.30027		68.11000		324.00000 
 43692.65567		 261.35540			43431.30027		166.44200		875.00000 
 43692.65567		 261.35540			43431.30027		68.11000		324.00000 
 43692.65567		 261.35540			43431.30027		166.44200		875.00000 
 43692.65567		 261.35540			43431.30027		68.11000		324.00000 
 43692.65567		 261.35540			43431.30027		166.44200		875.00000 
 43692.65567		 261.35540			43431.30027		68.11000		324.00000 
 43692.65567		 261.35540			43431.30027		166.44200		875.00000 
 43692.65567		 261.35540			43431.30027		68.11000		324.00000 
 43692.65567		 261.35540			43431.30027		166.44200		875.00000 
 43692.65567		 261.35540			43431.30027		68.11000		324.00000 
 43692.65567		 261.35540			43431.30027		166.44200		875.00000 
 43692.65567		 261.35540			43431.30027		68.11000		324.00000 
 43692.65567		 261.35540			43431.30027		166.44200		875.00000 
 43692.65567		 261.35540			43431.30027		68.11000		324.00000 
 43692.65567		 261.35540			43431.30027		166.44200		875.00000 
 43692.65567		 261.35540			43431.30027		68.11000		324.00000 
 43692.65567		 261.35540			43431.30027		166.44200		875.00000 
 43692.65567		 261.35540			43431.30027		68.11000		324.00000 
 43692.65567		 265.17429			43427.48138		166.44200		875.00000 
 43692.65567		 261.35540			43431.30027		68.11000		324.00000 
 43692.65567		 265.17429			43427.48138		166.44200		875.00000 
 43692.65567		 261.35540			43431.30027		68.11000		324.00000 
 43692.65567		 272.81207			43419.84360		166.44200		875.00000 
 43692.65567		 261.35540			43431.30027		68.11000		324.00000 
 43692.65567		 272.81207			43419.84360		166.44200		875.00000 
 43692.65567		 261.35540			43431.30027		68.11000		324.00000 
 43692.65567		 272.81207			43419.84360		166.44200		875.00000 
 43692.65567		 265.17429			43427.48138		68.11000		324.00000 
 43692.65567		 272.81207			43419.84360		166.44200		875.00000 
 43692.65567		 265.17429			43427.48138		68.11000		324.00000 
 43692.65567		 272.81207			43419.84360		166.44200		875.00000 
 43692.65567		 272.81207			43419.84360		68.11000		324.00000 
 43692.65567		 272.81207			43419.84360		166.44200		875.00000 
 43692.65567		 272.81207			43419.84360		68.11000		324.00000 
 43692.65567		 272.81207			43419.84360		166.44200		875.00000 
 43692.65567		 272.81207			43419.84360		68.11000		324.00000 
 43692.65567		 305.27265			43387.38302		166.44200		875.00000 
 43692.65567		 305.27265			43387.38302		68.11000		324.00000 
 43692.65567		 305.27265			43387.38302		166.44200		875.00000 
 43692.65567		 305.27265			43387.38302		68.11000		324.00000 
 43692.65567		 305.27265			43387.38302		166.44200		875.00000 
 43692.65567		 305.27265			43387.38302		68.11000		324.00000 
 43692.65567		 305.27265			43387.38302		166.44200		875.00000 
 43692.65567		 305.27265			43387.38302		68.11000		324.00000 
 43692.65567		 305.27265			43387.38302		166.44200		875.00000 
 43692.65567		 305.27265			43387.38302		68.11000		324.00000 
 43692.65567		 309.09154			43383.56413		166.44200		875.00000 
 43692.65567		 305.27265			43387.38302		68.11000		324.00000 
 43692.65567		 310.52363			43382.13204		166.44200		875.00000 
 43692.65567		 305.27265			43387.38302		68.11000		324.00000 
 43692.65567		 311.00099			43381.65468		166.44200		875.00000 
 43692.65567		 305.27265			43387.38302		68.11000		324.00000 
 43692.65567		 311.00099			43381.65468		166.44200		875.00000 
 43692.65567		 305.27265			43387.38302		68.11000		324.00000 
 43692.65567		 311.00099			43381.65468		166.44200		875.00000 
 43692.65567		 305.27265			43387.38302		68.11000		324.00000 
 43692.65567		 311.00099			43381.65468		166.44200		875.00000 
 43692.65567		 305.27265			43387.38302		68.11000		324.00000 
 43692.65567		 311.00099			43381.65468		143.89200		875.00000 
 43692.65567		 305.27265			43387.38302		68.11000		324.00000 
 43692.65567		 311.00099			43381.65468		143.89200		875.00000 
 43692.65567		 305.27265			43387.38302		68.11000		324.00000 
 43692.65567		 311.00099			43381.65468		143.89200		875.00000 
 43692.65567		 305.27265			43387.38302		68.11000		324.00000 
 43692.65567		 311.00099			43381.65468		143.89200		875.00000 
 43692.65567		 305.27265			43387.38302		68.11000		324.00000 
 43692.65567		 311.00099			43381.65468		143.89200		875.00000 
 43692.65567		 305.27265			43387.38302		68.11000		324.00000 
 43692.65567		 311.00099			43381.65468		143.89200		875.00000 
 43692.65567		 305.27265			43387.38302		68.11000		324.00000 
 43692.65567		 311.00099			43381.65468		143.89200		875.00000 
 43692.65567		 305.27265			43387.38302		68.11000		324.00000 
 43692.65567		 311.00099			43381.65468		143.89200		875.00000 
 43692.65567		 305.27265			43387.38302		68.11000		324.00000 
 43692.65567		 311.00099			43381.65468		143.89200		875.00000 
 43692.65567		 305.27265			43387.38302		68.11000		324.00000 
 43692.65567		 311.00099			43381.65468		143.89200		875.00000 
 43692.65567		 305.27265			43387.38302		68.11000		324.00000 
 43692.65567		 311.00099			43381.65468		143.89200		875.00000 
 43692.65567		 305.27265			43387.38302		68.11000		324.00000 
 43692.65567		 311.00099			43381.65468		143.89200		875.00000 
 43692.65567		 305.27265			43387.38302		68.11000		324.00000 
 43692.65567		 311.00099			43381.65468		143.89200		875.00000 
 43692.65567		 305.27265			43387.38302		68.11000		324.00000 
 43692.65567		 311.00099			43381.65468		143.89200		875.00000 
 43692.65567		 305.27265			43387.38302		68.11000		324.00000 
 43692.65567		 311.00099			43381.65468		143.89200		875.00000 
 43692.65567		 305.27265			43387.38302		68.11000		324.00000 
 43692.65567		 311.00099			43381.65468		143.89200		875.00000 
 43692.65567		 305.27265			43387.38302		68.11000		324.00000 
 43692.65567		 311.00099			43381.65468		143.89200		875.00000 
 43692.65567		 305.27265			43387.38302		68.11000		324.00000 
 43692.65567		 311.00099			43381.65468		143.89200		875.00000 
 43692.65567		 305.27265			43387.38302		68.11000		324.00000 
 43692.65567		 311.00099			43381.65468		143.89200		875.00000 
 43692.65567		 305.27265			43387.38302		68.11000		324.00000 
 43692.65567		 311.00099			43381.65468		143.89200		875.00000 
 43692.65567		 305.27265			43387.38302		68.11000		324.00000 
 43692.65567		 311.00099			43381.65468		143.89200		875.00000 
 43692.65567		 305.27265			43387.38302		68.11000		324.00000 
 43692.65567		 311.00099			43381.65468		143.89200		875.00000 
 43692.65567		 305.27265			43387.38302		68.11000		324.00000 
 43692.65567		 311.00099			43381.65468		143.89200		875.00000 
 43692.65567		 305.27265			43387.38302		68.11000		324.00000 
 43692.65567		 311.00099			43381.65468		143.89200		875.00000 
 43692.65567		 305.27265			43387.38302		68.11000		324.00000 
 43692.65567		 311.00099			43381.65468		143.89200		875.00000 
 43692.65567		 305.27265			43387.38302		68.11000		324.00000 
 43692.65567		 311.00099			43381.65468		143.89200		875.00000 
 43692.65567		 305.27265			43387.38302		68.11000		324.00000 
 43692.65567		 311.00099			43381.65468		143.89200		875.00000 
 43692.65567		 305.27265			43387.38302		68.11000		324.00000 
 43692.65567		 311.00099			43381.65468		143.89200		875.00000 
 43692.65567		 305.27265			43387.38302		68.11000		324.00000 
 43692.65567		 311.00099			43381.65468		143.89200		875.00000 
 43692.65567		 305.27265			43387.38302		68.11000		324.00000 
 43692.65567		 311.00099			43381.65468		143.89200		875.00000 
 43692.65567		 305.27265			43387.38302		68.11000		324.00000 
 43692.65567		 311.00099			43381.65468		143.89200		875.00000 
 43692.65567		 305.27265			43387.38302		68.11000		324.00000 
 43692.65567		 311.00099			43381.65468		135.22000		875.00000 
 43692.65567		 305.27265			43387.38302		68.11000		324.00000 
 43692.65567		 311.00099			43381.65468		135.22000		875.00000 
 43692.65567		 305.27265			43387.38302		68.11000		324.00000 
 43692.65567		 311.00099			43381.65468		135.22000		875.00000 
 43692.65567		 305.27265			43387.38302		68.11000		324.00000 
 43692.65567		 311.00099			43381.65468		135.22000		875.00000 
 43692.65567		 305.27265			43387.38302		68.11000		324.00000 
 43692.65567		 311.00099			43381.65468		135.22000		875.00000 
 43692.65567		 305.27265			43387.38302		68.11000		324.00000 
 43692.65567		 311.00099			43381.65468		135.22000		875.00000 
 43692.65567		 305.27265			43387.38302		68.11000		324.00000 
 43692.65567		 311.00099			43381.65468		135.22000		875.00000 
 43692.65567		 305.27265			43387.38302		68.11000		324.00000 
 43692.65567		 311.00099			43381.65468		135.22000		875.00000 
 43692.65567		 305.27265			43387.38302		68.11000		324.00000 
 43692.65567		 311.00099			43381.65468		135.22000		875.00000 
 43692.65567		 305.27265			43387.38302		68.11000		324.00000 
 43692.65567		 311.00099			43381.65468		135.22000		875.00000 
 43692.65567		 305.27265			43387.38302		68.11000		324.00000 
 43692.65567		 311.00099			43381.65468		135.22000		875.00000 
 43692.65567		 305.27265			43387.38302		68.11000		324.00000 
 43692.65567		 311.00099			43381.65468		135.22000		875.00000 
 43692.65567		 305.27265			43387.38302		68.11000		324.00000 
 43692.65567		 311.00099			43381.65468		135.22000		875.00000 
 43692.65567		 305.27265			43387.38302		68.11000		324.00000 
 43692.65567		 311.00099			43381.65468		135.22000		875.00000 
 43692.65567		 305.27265			43387.38302		64.65000		324.00000 
 43692.65567		 311.00099			43381.65468		135.22000		875.00000 
 43692.65567		 305.27265			43387.38302		64.65000		324.00000 
 43692.65567		 311.00099			43381.65468		135.22000		875.00000 
 43692.65567		 305.27265			43387.38302		64.65000		324.00000 
 43692.65567		 314.81988			43377.83579		135.22000		875.00000 
 43692.65567		 305.27265			43387.38302		64.65000		324.00000 
 43692.65567		 314.81988			43377.83579		135.22000		875.00000 
 43692.65567		 305.27265			43387.38302		64.65000		324.00000 
 43692.65567		 314.81988			43377.83579		135.22000		875.00000 
 43692.65567		 305.27265			43387.38302		64.65000		324.00000 
 43692.65567		 318.63877			43374.01690		135.22000		875.00000 
 43692.65567		 305.27265			43387.38302		64.65000		324.00000 
 43692.65567		 322.45767			43370.19801		135.22000		875.00000 
 43692.65567		 305.27265			43387.38302		64.65000		324.00000 
 43692.65567		 326.27656			43366.37912		135.22000		875.00000 
 43692.65567		 305.27265			43387.38302		64.65000		324.00000 
 43692.65567		 326.27656			43366.37912		135.22000		875.00000 
 43692.65567		 305.27265			43387.38302		64.65000		324.00000 
 43692.65567		 326.27656			43366.37912		135.22000		875.00000 
 43692.65567		 305.27265			43387.38302		64.65000		324.00000 
 43692.65567		 537.27032			43155.38535		135.22000		875.00000 
 43692.65567		 305.27265			43387.38302		64.65000		324.00000 
 43692.65567		 557.79686			43134.85881		135.22000		875.00000 
 43692.65567		 305.27265			43387.38302		64.65000		324.00000 
 43692.65567		 598.84995			43093.80572		135.22000		875.00000 
 43692.65567		 305.27265			43387.38302		64.65000		324.00000 
 43692.65567		 598.84995			43093.80572		135.22000		875.00000 
 43692.65567		 305.27265			43387.38302		64.65000		324.00000 
 43692.65567		 598.84995			43093.80572		135.22000		875.00000 
 43692.65567		 305.27265			43387.38302		64.65000		324.00000 
 43692.65567		 598.84995			43093.80572		135.22000		875.00000 
 43692.65567		 305.27265			43387.38302		64.65000		324.00000 
 43692.65567		 598.84995			43093.80572		135.22000		875.00000 
 43692.65567		 305.27265			43387.38302		64.65000		324.00000 
 43692.65567		 598.84995			43093.80572		135.22000		875.00000 
 43692.65567		 305.27265			43387.38302		64.65000		324.00000 
 43692.65567		 598.84995			43093.80572		135.22000		875.00000 
 43692.65567		 305.27265			43387.38302		64.65000		324.00000 
 43692.65567		 598.84995			43093.80572		135.22000		875.00000 
 43692.65567		 305.27265			43387.38302		64.65000		324.00000 
 43692.65567		 598.84995			43093.80572		135.22000		875.00000 
 43692.65567		 305.27265			43387.38302		64.65000		324.00000 
 43692.65567		 598.84995			43093.80572		135.22000		875.00000 
 43692.65567		 305.27265			43387.38302		64.65000		324.00000 
 43692.65567		 598.84995			43093.80572		135.22000		875.00000 
 43692.65567		 305.27265			43387.38302		64.65000		324.00000 
 43692.65567		 598.84995			43093.80572		135.22000		875.00000 
 43692.65567		 305.27265			43387.38302		64.65000		324.00000 
 43692.65567		 598.84995			43093.80572		135.22000		875.00000 
 43692.65567		 305.27265			43387.38302		64.65000		324.00000 
 43692.65567		 598.84995			43093.80572		135.22000		875.00000 
 43692.65567		 305.27265			43387.38302		64.65000		324.00000 
 43692.65567		 598.84995			43093.80572		135.22000		875.00000 
 43692.65567		 305.27265			43387.38302		64.65000		324.00000 
 43692.65567		 598.84995			43093.80572		135.22000		875.00000 
 43692.65567		 305.27265			43387.38302		64.65000		324.00000 
 43692.65567		 598.84995			43093.80572		149.62800		875.00000 
 43692.65567		 305.27265			43387.38302		64.65000		324.00000 
 43692.65567		 598.84995			43093.80572		149.62800		875.00000 
 43692.65567		 305.27265			43387.38302		64.65000		324.00000 
 43692.65567		 598.84995			43093.80572		149.62800		875.00000 
 43692.65567		 305.27265			43387.38302		64.65000		324.00000 
 43692.65567		 598.84995			43093.80572		149.62800		875.00000 
 43692.65567		 305.27265			43387.38302		64.65000		324.00000 
 43692.65567		 598.84995			43093.80572		149.62800		875.00000 
 43692.65567		 305.27265			43387.38302		64.65000		324.00000 
 43692.65567		 598.84995			43093.80572		149.62800		875.00000 
 43692.65567		 305.27265			43387.38302		64.65000		324.00000 
 43692.65567		 598.84995			43093.80572		149.62800		875.00000 
 43692.65567		 305.27265			43387.38302		64.65000		324.00000 
 43692.65567		 598.84995			43093.80572		149.62800		875.00000 
 43692.65567		 305.27265			43387.38302		64.65000		324.00000 
 43692.65567		 598.84995			43093.80572		149.62800		875.00000 
 43692.65567		 305.27265			43387.38302		64.65000		324.00000 
 43692.65567		 598.84995			43093.80572		149.62800		875.00000 
 43692.65567		 305.27265			43387.38302		64.65000		324.00000 
 43692.65567		 598.84995			43093.80572		149.62800		875.00000 
 43692.65567		 305.27265			43387.38302		64.65000		324.00000 
 43692.65567		 598.84995			43093.80572		149.62800		875.00000 
 43692.65567		 305.27265			43387.38302		64.65000		324.00000 
 43692.65567		 598.84995			43093.80572		149.62800		875.00000 
 43692.65567		 305.27265			43387.38302		64.65000		324.00000 
 43692.65567		 598.84995			43093.80572		149.62800		875.00000 
 43692.65567		 305.27265			43387.38302		64.65000		324.00000 
 43692.65567		 598.84995			43093.80572		149.62800		875.00000 
 43692.65567		 305.27265			43387.38302		64.65000		324.00000 
 43692.65567		 598.84995			43093.80572		149.62800		875.00000 
 43692.65567		 305.27265			43387.38302		64.65000		324.00000 
 43692.65567		 598.84995			43093.80572		149.62800		875.00000 
 43692.65567		 305.27265			43387.38302		64.65000		324.00000 
 43692.65567		 598.84995			43093.80572		149.62800		875.00000 
 43692.65567		 305.27265			43387.38302		64.65000		324.00000 
 43692.65567		 598.84995			43093.80572		149.62800		875.00000 
 43692.65567		 305.27265			43387.38302		64.65000		324.00000 
 43692.65567		 598.84995			43093.80572		149.62800		875.00000 
 43692.65567		 305.27265			43387.38302		64.65000		324.00000 
 43692.65567		 598.84995			43093.80572		149.62800		875.00000 
 43692.65567		 305.27265			43387.38302		64.65000		324.00000 
 43692.65567		 598.84995			43093.80572		149.62800		875.00000 
 43692.65567		 305.27265			43387.38302		64.65000		324.00000 
 43692.65567		 598.84995			43093.80572		149.62800		875.00000 
 43692.65567		 305.27265			43387.38302		64.65000		324.00000 
 43692.65567		 598.84995			43093.80572		149.62800		875.00000 
 43692.65567		 305.27265			43387.38302		64.65000		324.00000 
 43692.65567		 598.84995			43093.80572		149.62800		875.00000 
 43692.65567		 305.27265			43387.38302		64.65000		324.00000 
 43692.65567		 598.84995			43093.80572		149.62800		875.00000 
 43692.65567		 305.27265			43387.38302		64.65000		324.00000 
 43692.65567		 598.84995			43093.80572		149.62800		875.00000 
 43692.65567		 305.27265			43387.38302		64.65000		324.00000 
 43692.65567		 598.84995			43093.80572		149.62800		875.00000 
 43692.65567		 305.27265			43387.38302		64.65000		324.00000 
 43692.65567		 598.84995			43093.80572		149.62800		875.00000 
 43692.65567		 305.27265			43387.38302		64.65000		324.00000 
 43692.65567		 598.84995			43093.80572		149.62800		875.00000 
 43692.65567		 305.27265			43387.38302		64.65000		324.00000 
 43692.65567		 598.84995			43093.80572		149.62800		875.00000 
 43692.65567		 305.27265			43387.38302		64.65000		324.00000 
 43692.65567		 598.84995			43093.80572		149.62800		875.00000 
 43692.65567		 305.27265			43387.38302		64.65000		324.00000 
 43692.65567		 598.84995			43093.80572		149.62800		875.00000 
 43692.65567		 305.27265			43387.38302		64.65000		324.00000 
 43692.65567		 598.84995			43093.80572		149.62800		875.00000 
 43692.65567		 305.27265			43387.38302		64.65000		324.00000 
 43692.65567		 598.84995			43093.80572		149.62800		875.00000 
 43692.65567		 305.27265			43387.38302		64.65000		324.00000 
 43692.65567		 598.84995			43093.80572		149.62800		875.00000 
 43692.65567		 305.27265			43387.38302		64.65000		324.00000 
 43692.65567		 598.84995			43093.80572		149.62800		875.00000 
 43692.65567		 305.27265			43387.38302		64.65000		324.00000 
 43692.65567		 598.84995			43093.80572		149.62800		875.00000 
 43692.65567		 305.27265			43387.38302		64.65000		324.00000 
 43692.65567		 598.84995			43093.80572		149.62800		875.00000 
 43692.65567		 305.27265			43387.38302		64.65000		324.00000 
 43692.65567		 598.84995			43093.80572		149.62800		875.00000 
 43692.65567		 305.27265			43387.38302		64.65000		324.00000 
 43692.65567		 598.84995			43093.80572		149.62800		875.00000 
 43692.65567		 305.27265			43387.38302		64.65000		324.00000 
 43692.65567		 598.84995			43093.80572		149.62800		875.00000 
 43692.65567		 305.27265			43387.38302		64.65000		324.00000 
 43692.65567		 598.84995			43093.80572		149.62800		875.00000 
 43692.65567		 305.27265			43387.38302		64.65000		324.00000 
 43692.65567		 598.84995			43093.80572		149.62800		875.00000 
 43692.65567		 305.27265			43387.38302		64.65000		324.00000 
 43692.65567		 598.84995			43093.80572		149.62800		875.00000 
 43692.65567		 305.27265			43387.38302		64.65000		324.00000 
 43692.65567		 598.84995			43093.80572		149.62800		875.00000 
 43692.65567		 305.27265			43387.38302		64.65000		324.00000 
 43692.65567		 598.84995			43093.80572		149.62800		875.00000 
 43692.65567		 305.27265			43387.38302		64.65000		324.00000 
 43692.65567		 598.84995			43093.80572		149.62800		875.00000 
 43692.65567		 305.27265			43387.38302		64.65000		324.00000 
 43692.65567		 598.84995			43093.80572		149.62800		875.00000 
 43692.65567		 305.27265			43387.38302		64.65000		324.00000 
 43692.65567		 598.84995			43093.80572		149.62800		875.00000 
 43692.65567		 305.27265			43387.38302		64.65000		324.00000 
 43692.65567		 598.84995			43093.80572		149.62800		875.00000 
 43692.65567		 305.27265			43387.38302		64.65000		324.00000 
 43692.65567		 598.84995			43093.80572		149.62800		875.00000 
 43692.65567		 305.27265			43387.38302		64.65000		324.00000 
 43692.65567		 598.84995			43093.80572		149.62800		875.00000 
 43692.65567		 305.27265			43387.38302		64.65000		324.00000 
 43692.65567		 598.84995			43093.80572		149.62800		875.00000 
 43692.65567		 305.27265			43387.38302		64.65000		324.00000 
 43692.65567		 598.84995			43093.80572		149.62800		875.00000 
 43692.65567		 305.27265			43387.38302		64.65000		324.00000 
 43692.65567		 598.84995			43093.80572		149.62800		875.00000 
 43692.65567		 305.27265			43387.38302		64.65000		324.00000 
 43692.65567		 598.84995			43093.80572		149.62800		875.00000 
 43692.65567		 305.27265			43387.38302		64.65000		324.00000 
 43692.65567		 598.84995			43093.80572		149.62800		875.00000 
 43692.65567		 305.27265			43387.38302		64.65000		324.00000 
 43692.65567		 598.84995			43093.80572		149.62800		875.00000 
 43692.65567		 305.27265			43387.38302		64.65000		324.00000 
 43692.65567		 598.84995			43093.80572		149.62800		875.00000 
 43692.65567		 305.27265			43387.38302		64.65000		324.00000 
 43692.65567		 598.84995			43093.80572		149.62800		875.00000 
 43692.65567		 305.27265			43387.38302		64.65000		324.00000 
 43692.65567		 598.84995			43093.80572		149.62800		875.00000 
 43692.65567		 305.27265			43387.38302		64.65000		324.00000 
 43692.65567		 598.84995			43093.80572		149.62800		875.00000 
 43692.65567		 305.27265			43387.38302		64.65000		324.00000 
 43692.65567		 598.84995			43093.80572		149.62800		875.00000 
 43692.65567		 305.27265			43387.38302		64.65000		324.00000 
 43692.65567		 598.84995			43093.80572		188.85600		875.00000 
 43692.65567		 305.27265			43387.38302		64.65000		324.00000 
 43692.65567		 598.84995			43093.80572		188.85600		875.00000 
 43692.65567		 305.27265			43387.38302		64.65000		324.00000 
 43692.65567		 598.84995			43093.80572		188.85600		875.00000 
 43692.65567		 305.27265			43387.38302		64.65000		324.00000 
 43692.65567		 598.84995			43093.80572		188.85600		875.00000 
 43692.65567		 305.27265			43387.38302		64.65000		324.00000 
 43692.65567		 598.84995			43093.80572		188.85600		875.00000 
 43692.65567		 305.27265			43387.38302		64.65000		324.00000 
 43692.65567		 598.84995			43093.80572		188.85600		875.00000 
 43692.65567		 305.27265			43387.38302		64.65000		324.00000 
 43692.65567		 598.84995			43093.80572		188.85600		875.00000 
 43692.65567		 305.27265			43387.38302		64.65000		324.00000 
 43692.65567		 598.84995			43093.80572		188.85600		875.00000 
 43692.65567		 305.27265			43387.38302		64.65000		324.00000 
 43692.65567		 598.84995			43093.80572		188.85600		875.00000 
 43692.65567		 305.27265			43387.38302		64.65000		324.00000 
 43692.65567		 598.84995			43093.80572		188.85600		875.00000 
 43692.65567		 305.27265			43387.38302		64.65000		324.00000 
 43692.65567		 598.84995			43093.80572		188.85600		875.00000 
 43692.65567		 305.27265			43387.38302		64.65000		324.00000 
 43692.65567		 598.84995			43093.80572		188.85600		875.00000 
 43692.65567		 305.27265			43387.38302		64.65000		324.00000 
 43692.65567		 598.84995			43093.80572		188.85600		875.00000 
 43692.65567		 305.27265			43387.38302		64.65000		324.00000 
 43692.65567		 598.84995			43093.80572		188.85600		875.00000 
 43692.65567		 305.27265			43387.38302		64.65000		324.00000 
 43692.65567		 598.84995			43093.80572		188.85600		875.00000 
 43692.65567		 305.27265			43387.38302		64.65000		324.00000 
 43692.65567		 598.84995			43093.80572		188.85600		875.00000 
 43692.65567		 305.27265			43387.38302		64.65000		324.00000 
 43692.65567		 598.84995			43093.80572		188.85600		875.00000 
 43692.65567		 305.27265			43387.38302		64.65000		324.00000 
 43692.65567		 598.84995			43093.80572		188.85600		875.00000 
 43692.65567		 305.27265			43387.38302		64.65000		324.00000 
 43692.65567		 598.84995			43093.80572		188.85600		875.00000 
 43692.65567		 305.27265			43387.38302		64.65000		324.00000 
 43692.65567		 598.84995			43093.80572		188.85600		875.00000 
 43692.65567		 305.27265			43387.38302		64.65000		324.00000 
 43692.65567		 598.84995			43093.80572		188.85600		875.00000 
 43692.65567		 305.27265			43387.38302		64.65000		324.00000 
 43692.65567		 598.84995			43093.80572		188.85600		875.00000 
 43692.65567		 305.27265			43387.38302		64.65000		324.00000 
 43692.65567		 598.84995			43093.80572		188.85600		875.00000 
 43692.65567		 305.27265			43387.38302		64.65000		324.00000 
 43692.65567		 598.84995			43093.80572		188.85600		875.00000 
 43692.65567		 305.27265			43387.38302		64.65000		324.00000 
 43692.65567		 598.84995			43093.80572		188.85600		875.00000 
 43692.65567		 305.27265			43387.38302		64.65000		324.00000 
 43692.65567		 598.84995			43093.80572		188.85600		875.00000 
 43692.65567		 305.27265			43387.38302		64.65000		324.00000 
 43692.65567		 598.84995			43093.80572		188.85600		875.00000 
 43692.65567		 305.27265			43387.38302		64.65000		324.00000 
 43692.65567		 598.84995			43093.80572		188.85600		875.00000 
 43692.65567		 305.27265			43387.38302		64.65000		324.00000 
 43692.65567		 598.84995			43093.80572		188.85600		875.00000 
 43692.65567		 305.27265			43387.38302		64.65000		324.00000 
 43692.65567		 598.84995			43093.80572		188.85600		875.00000 
 43692.65567		 305.27265			43387.38302		64.65000		324.00000 
 43692.65567		 598.84995			43093.80572		188.85600		875.00000 
 43692.65567		 305.27265			43387.38302		64.65000		324.00000 
 43692.65567		 598.84995			43093.80572		188.85600		875.00000 
 43692.65567		 305.27265			43387.38302		64.65000		324.00000 
 43692.65567		 598.84995			43093.80572		188.85600		875.00000 
 43692.65567		 305.27265			43387.38302		64.65000		324.00000 
 43692.65567		 598.84995			43093.80572		188.85600		875.00000 
 43692.65567		 305.27265			43387.38302		64.65000		324.00000 
 43692.65567		 598.84995			43093.80572		188.85600		875.00000 
 43692.65567		 305.27265			43387.38302		64.65000		324.00000 
 43692.65567		 598.84995			43093.80572		188.85600		875.00000 
 43692.65567		 305.27265			43387.38302		64.65000		324.00000 
 43692.65567		 598.84995			43093.80572		188.85600		875.00000 
 43692.65567		 305.27265			43387.38302		64.65000		324.00000 
 43692.65567		 598.84995			43093.80572		188.85600		875.00000 
 43692.65567		 305.27265			43387.38302		64.65000		324.00000 
 43692.65567		 598.84995			43093.80572		188.85600		875.00000 
 43692.65567		 305.27265			43387.38302		64.65000		324.00000 
 43692.65567		 598.84995			43093.80572		188.85600		875.00000 
 43692.65567		 305.27265			43387.38302		64.65000		324.00000 
 43692.65567		 598.84995			43093.80572		188.85600		875.00000 
 43692.65567		 305.27265			43387.38302		64.65000		324.00000 
 43692.65567		 598.84995			43093.80572		188.85600		875.00000 
 43692.65567		 305.27265			43387.38302		64.65000		324.00000 
 43692.65567		 598.84995			43093.80572		188.85600		875.00000 
 43692.65567		 305.27265			43387.38302		64.65000		324.00000 
 43692.65567		 598.84995			43093.80572		188.85600		875.00000 
 43692.65567		 305.27265			43387.38302		64.65000		324.00000 
 43692.65567		 598.84995			43093.80572		188.85600		875.00000 
 43692.65567		 305.27265			43387.38302		64.65000		324.00000 
 43692.65567		 598.84995			43093.80572		188.85600		875.00000 
 43692.65567		 305.27265			43387.38302		64.65000		324.00000 
 43692.65567		 598.84995			43093.80572		188.85600		875.00000 
 43692.65567		 305.27265			43387.38302		64.65000		324.00000 
 43692.65567		 598.84995			43093.80572		188.85600		875.00000 
 43692.65567		 305.27265			43387.38302		64.65000		324.00000 
 43692.65567		 598.84995			43093.80572		188.85600		875.00000 
 43692.65567		 305.27265			43387.38302		64.65000		324.00000 
 43692.65567		 598.84995			43093.80572		188.85600		875.00000 
 43692.65567		 305.27265			43387.38302		64.65000		324.00000 
 43692.65567		 598.84995			43093.80572		188.85600		875.00000 
 43692.65567		 305.27265			43387.38302		64.65000		324.00000 
 43692.65567		 598.84995			43093.80572		188.85600		875.00000 
 43692.65567		 305.27265			43387.38302		64.65000		324.00000 
 43692.65567		 598.84995			43093.80572		188.85600		875.00000 
 43692.65567		 305.27265			43387.38302		64.65000		324.00000 
 43692.65567		 598.84995			43093.80572		188.85600		875.00000 
 43692.65567		 305.27265			43387.38302		64.65000		324.00000 
 43692.65567		 598.84995			43093.80572		188.85600		875.00000 
 43692.65567		 305.27265			43387.38302		64.65000		324.00000 
 43692.65567		 598.84995			43093.80572		188.85600		875.00000 
 43692.65567		 305.27265			43387.38302		64.65000		324.00000 
 43692.65567		 598.84995			43093.80572		188.85600		875.00000 
 43692.65567		 305.27265			43387.38302		64.65000		324.00000 
 43692.65567		 598.84995			43093.80572		188.85600		875.00000 
 43692.65567		 305.27265			43387.38302		64.65000		324.00000 
 43692.65567		 598.84995			43093.80572		188.85600		875.00000 
 43692.65567		 305.27265			43387.38302		64.65000		324.00000 
 43692.65567		 598.84995			43093.80572		188.85600		875.00000 
 43692.65567		 305.27265			43387.38302		64.65000		324.00000 
 43692.65567		 598.84995			43093.80572		188.85600		875.00000 
 43692.65567		 305.27265			43387.38302		64.65000		324.00000 
 43692.65567		 598.84995			43093.80572		188.85600		875.00000 
 43692.65567		 305.27265			43387.38302		64.65000		324.00000 
 43692.65567		 598.84995			43093.80572		188.85600		875.00000 
 43692.65567		 305.27265			43387.38302		64.65000		324.00000 
 43692.65567		 598.84995			43093.80572		188.85600		875.00000 
 43692.65567		 305.27265			43387.38302		64.65000		324.00000 
 43692.65567		 598.84995			43093.80572		204.68000		875.00000 
 43692.65567		 305.27265			43387.38302		64.65000		324.00000 
 43692.65567		 598.84995			43093.80572		204.68000		875.00000 
 43692.65567		 305.27265			43387.38302		64.65000		324.00000 
 43692.65567		 598.84995			43093.80572		204.68000		875.00000 
 43692.65567		 305.27265			43387.38302		64.65000		324.00000 
 43692.65567		 598.84995			43093.80572		204.68000		875.00000 
 43692.65567		 305.27265			43387.38302		64.65000		324.00000 
 43692.65567		 598.84995			43093.80572		204.68000		875.00000 
 43692.65567		 305.27265			43387.38302		64.65000		324.00000 
 43692.65567		 598.84995			43093.80572		204.68000		875.00000 
 43692.65567		 305.27265			43387.38302		64.65000		324.00000 
 43692.65567		 598.84995			43093.80572		204.68000		875.00000 
 43692.65567		 305.27265			43387.38302		64.65000		324.00000 
 43692.65567		 598.84995			43093.80572		204.68000		875.00000 
 43692.65567		 305.27265			43387.38302		64.65000		324.00000 
 43692.65567		 598.84995			43093.80572		204.68000		875.00000 
 43692.65567		 305.27265			43387.38302		64.65000		324.00000 
 43692.65567		 598.84995			43093.80572		204.68000		875.00000 
 43692.65567		 305.27265			43387.38302		64.65000		324.00000 
 43692.65567		 598.84995			43093.80572		204.68000		875.00000 
 43692.65567		 305.27265			43387.38302		64.65000		324.00000 
 43692.65567		 598.84995			43093.80572		204.68000		875.00000 
 43692.65567		 305.27265			43387.38302		64.65000		324.00000 
 43692.65567		 598.84995			43093.80572		204.68000		875.00000 
 43692.65567		 305.27265			43387.38302		64.65000		324.00000 
 43692.65567		 598.84995			43093.80572		204.68000		875.00000 
 43692.65567		 305.27265			43387.38302		64.65000		324.00000 
 43692.65567		 598.84995			43093.80572		204.68000		875.00000 
 43692.65567		 305.27265			43387.38302		64.65000		324.00000 
 43692.65567		 598.84995			43093.80572		204.68000		875.00000 
 43692.65567		 305.27265			43387.38302		64.65000		324.00000 
 43692.65567		 598.84995			43093.80572		204.68000		875.00000 
 43692.65567		 305.27265			43387.38302		64.65000		324.00000 
 43692.65567		 598.84995			43093.80572		204.68000		875.00000 
 43692.65567		 305.27265			43387.38302		64.65000		324.00000 
 43692.65567		 598.84995			43093.80572		204.68000		875.00000 
 43692.65567		 305.27265			43387.38302		64.65000		324.00000 
 43692.65567		 598.84995			43093.80572		204.68000		875.00000 
 43692.65567		 305.27265			43387.38302		64.65000		324.00000 
 43692.65567		 598.84995			43093.80572		204.68000		875.00000 
 43692.65567		 305.27265			43387.38302		64.65000		324.00000 
 43692.65567		 598.84995			43093.80572		204.68000		875.00000 
 43692.65567		 305.27265			43387.38302		64.65000		324.00000 
 43692.65567		 598.84995			43093.80572		204.68000		875.00000 
 43692.65567		 305.27265			43387.38302		64.65000		324.00000 
 43692.65567		 598.84995			43093.80572		204.68000		875.00000 
 43692.65567		 305.27265			43387.38302		64.65000		324.00000 
 43692.65567		 598.84995			43093.80572		204.68000		875.00000 
 43692.65567		 305.27265			43387.38302		64.65000		324.00000 
 43692.65567		 598.84995			43093.80572		204.68000		875.00000 
 43692.65567		 305.27265			43387.38302		64.65000		324.00000 
 43692.65567		 598.84995			43093.80572		204.68000		875.00000 
 43692.65567		 305.27265			43387.38302		64.65000		324.00000 
 43692.65567		 598.84995			43093.80572		204.68000		875.00000 
 43692.65567		 305.27265			43387.38302		64.65000		324.00000 
 43692.65567		 598.84995			43093.80572		204.68000		875.00000 
 43692.65567		 305.27265			43387.38302		64.65000		324.00000 
 43692.65567		 598.84995			43093.80572		204.68000		875.00000 
 43692.65567		 305.27265			43387.38302		64.65000		324.00000 
 43692.65567		 598.84995			43093.80572		204.68000		875.00000 
 43692.65567		 305.27265			43387.38302		64.65000		324.00000 
 43692.65567		 598.84995			43093.80572		204.68000		875.00000 
 43692.65567		 305.27265			43387.38302		64.65000		324.00000 
 43692.65567		 598.84995			43093.80572		204.68000		875.00000 
 43692.65567		 305.27265			43387.38302		64.65000		324.00000 
 43692.65567		 598.84995			43093.80572		204.68000		875.00000 
 43692.65567		 305.27265			43387.38302		64.65000		324.00000 
 43692.65567		 598.84995			43093.80572		204.68000		875.00000 
 43692.65567		 305.27265			43387.38302		64.65000		324.00000 
 43692.65567		 598.84995			43093.80572		204.68000		875.00000 
 43692.65567		 305.27265			43387.38302		64.65000		324.00000 
 43692.65567		 598.84995			43093.80572		204.68000		875.00000 
 43692.65567		 305.27265			43387.38302		64.65000		324.00000 
 43692.65567		 598.84995			43093.80572		204.68000		875.00000 
 43692.65567		 305.27265			43387.38302		64.65000		324.00000 
 43692.65567		 598.84995			43093.80572		204.68000		875.00000 
 43692.65567		 305.27265			43387.38302		64.65000		324.00000 
 43692.65567		 598.84995			43093.80572		204.68000		875.00000 
 43692.65567		 305.27265			43387.38302		64.65000		324.00000 
 43692.65567		 598.84995			43093.80572		204.68000		875.00000 
 43692.65567		 305.27265			43387.38302		64.65000		324.00000 
 43692.65567		 598.84995			43093.80572		204.68000		875.00000 
 43692.65567		 305.27265			43387.38302		64.65000		324.00000 
 43692.65567		 598.84995			43093.80572		204.68000		875.00000 
 43692.65567		 305.27265			43387.38302		64.65000		324.00000 
 43692.65567		 598.84995			43093.80572		204.68000		875.00000 
 43692.65567		 305.27265			43387.38302		64.65000		324.00000 
 43692.65567		 598.84995			43093.80572		204.68000		875.00000 
 43692.65567		 305.27265			43387.38302		64.65000		324.00000 
 43692.65567		 598.84995			43093.80572		204.68000		875.00000 
 43692.65567		 305.27265			43387.38302		64.65000		324.00000 
 43692.65567		 598.84995			43093.80572		204.68000		875.00000 
 43692.65567		 305.27265			43387.38302		64.65000		324.00000 
 43692.65567		 598.84995			43093.80572		204.68000		875.00000 
 43692.65567		 305.27265			43387.38302		64.65000		324.00000 
 43692.65567		 598.84995			43093.80572		204.68000		875.00000 
 43692.65567		 305.27265			43387.38302		64.65000		324.00000 
 43692.65567		 598.84995			43093.80572		204.68000		875.00000 
 43692.65567		 305.27265			43387.38302		64.65000		324.00000 
 43692.65567		 598.84995			43093.80572		204.68000		875.00000 
 43692.65567		 305.27265			43387.38302		64.65000		324.00000 
 43692.65567		 598.84995			43093.80572		204.68000		875.00000 
 43692.65567		 305.27265			43387.38302		64.65000		324.00000 
 43692.65567		 598.84995			43093.80572		204.68000		875.00000 
 43692.65567		 305.27265			43387.38302		64.65000		324.00000 
 43692.65567		 598.84995			43093.80572		204.68000		875.00000 
 43692.65567		 305.27265			43387.38302		64.65000		324.00000 
 43692.65567		 598.84995			43093.80572		204.68000		875.00000 
 43692.65567		 305.27265			43387.38302		64.65000		324.00000 
 43692.65567		 598.84995			43093.80572		204.68000		875.00000 
 43692.65567		 305.27265			43387.38302		64.65000		324.00000 
 43692.65567		 598.84995			43093.80572		204.68000		875.00000 
 43692.65567		 305.27265			43387.38302		64.65000		324.00000 
 43692.65567		 598.84995			43093.80572		204.68000		875.00000 
 43692.65567		 305.27265			43387.38302		64.65000		324.00000 
 43692.65567		 598.84995			43093.80572		204.68000		875.00000 
 43692.65567		 305.27265			43387.38302		64.65000		324.00000 
 43692.65567		 598.84995			43093.80572		204.68000		875.00000 
 43692.65567		 305.27265			43387.38302		64.65000		324.00000 
 43692.65567		 598.84995			43093.80572		204.68000		875.00000 
 43692.65567		 305.27265			43387.38302		64.65000		324.00000 
 43692.65567		 598.84995			43093.80572		204.68000		875.00000 
 43692.65567		 305.27265			43387.38302		64.65000		324.00000 
 43692.65567		 598.84995			43093.80572		204.68000		875.00000 
 43692.65567		 305.27265			43387.38302		64.65000		324.00000 
 43692.65567		 598.84995			43093.80572		204.68000		875.00000 
 43692.65567		 305.27265			43387.38302		64.65000		324.00000 
 43692.65567		 598.84995			43093.80572		204.68000		875.00000 
 43692.65567		 305.27265			43387.38302		64.65000		324.00000 
 43692.65567		 598.84995			43093.80572		210.60800		875.00000 
 43692.65567		 305.27265			43387.38302		64.65000		324.00000 
 43692.65567		 598.84995			43093.80572		210.60800		875.00000 
 43692.65567		 305.27265			43387.38302		64.65000		324.00000 
 43692.65567		 598.84995			43093.80572		210.60800		875.00000 
 43692.65567		 305.27265			43387.38302		64.65000		324.00000 
 43692.65567		 598.84995			43093.80572		210.60800		875.00000 
 43692.65567		 305.27265			43387.38302		64.65000		324.00000 
 43692.65567		 598.84995			43093.80572		210.60800		875.00000 
 43692.65567		 305.27265			43387.38302		64.65000		324.00000 
 43692.65567		 598.84995			43093.80572		210.60800		875.00000 
 43692.65567		 305.27265			43387.38302		64.65000		324.00000 
 43692.65567		 598.84995			43093.80572		210.60800		875.00000 
 43692.65567		 305.27265			43387.38302		64.65000		324.00000 
 43692.65567		 598.84995			43093.80572		210.60800		875.00000 
 43692.65567		 305.27265			43387.38302		64.65000		324.00000 
 43692.65567		 598.84995			43093.80572		210.60800		875.00000 
 43692.65567		 305.27265			43387.38302		64.65000		324.00000 
 43692.65567		 598.84995			43093.80572		210.60800		875.00000 
 43692.65567		 305.27265			43387.38302		64.65000		324.00000 
 43692.65567		 598.84995			43093.80572		210.60800		875.00000 
 43692.65567		 305.27265			43387.38302		64.65000		324.00000 
 43692.65567		 598.84995			43093.80572		210.60800		875.00000 
 43692.65567		 305.27265			43387.38302		64.65000		324.00000 
 43692.65567		 598.84995			43093.80572		210.60800		875.00000 
 43692.65567		 305.27265			43387.38302		64.65000		324.00000 
 43692.65567		 598.84995			43093.80572		210.60800		875.00000 
 43692.65567		 305.27265			43387.38302		64.65000		324.00000 
 43692.65567		 598.84995			43093.80572		210.60800		875.00000 
 43692.65567		 305.27265			43387.38302		64.65000		324.00000 
 43692.65567		 598.84995			43093.80572		210.60800		875.00000 
 43692.65567		 305.27265			43387.38302		64.65000		324.00000 
 43692.65567		 598.84995			43093.80572		210.60800		875.00000 
 43692.65567		 305.27265			43387.38302		64.65000		324.00000 
 43692.65567		 598.84995			43093.80572		210.60800		875.00000 
 43692.65567		 305.27265			43387.38302		64.65000		324.00000 
 43692.65567		 598.84995			43093.80572		210.60800		875.00000 
 43692.65567		 305.27265			43387.38302		64.65000		324.00000 
 43692.65567		 598.84995			43093.80572		210.60800		875.00000 
 43692.65567		 305.27265			43387.38302		64.65000		324.00000 
 43692.65567		 598.84995			43093.80572		210.60800		875.00000 
 43692.65567		 305.27265			43387.38302		64.65000		324.00000 
 43692.65567		 598.84995			43093.80572		210.60800		875.00000 
 43692.65567		 305.27265			43387.38302		64.65000		324.00000 
 43692.65567		 598.84995			43093.80572		210.60800		875.00000 
 43692.65567		 305.27265			43387.38302		64.65000		324.00000 
 43692.65567		 598.84995			43093.80572		210.60800		875.00000 
 43692.65567		 305.27265			43387.38302		64.65000		324.00000 
 43692.65567		 598.84995			43093.80572		210.60800		875.00000 
 43692.65567		 305.27265			43387.38302		64.65000		324.00000 
 43692.65567		 598.84995			43093.80572		210.60800		875.00000 
 43692.65567		 305.27265			43387.38302		64.65000		324.00000 
 43692.65567		 598.84995			43093.80572		210.60800		875.00000 
 43692.65567		 305.27265			43387.38302		64.65000		324.00000 
 43692.65567		 598.84995			43093.80572		210.60800		875.00000 
 43692.65567		 305.27265			43387.38302		64.65000		324.00000 
 43692.65567		 598.84995			43093.80572		210.60800		875.00000 
 43692.65567		 305.27265			43387.38302		64.65000		324.00000 
 43692.65567		 598.84995			43093.80572		210.60800		875.00000 
 43692.65567		 305.27265			43387.38302		64.65000		324.00000 
 43692.65567		 598.84995			43093.80572		210.60800		875.00000 
 43692.65567		 305.27265			43387.38302		64.65000		324.00000 
 43692.65567		 598.84995			43093.80572		210.60800		875.00000 
 43692.65567		 305.27265			43387.38302		64.65000		324.00000 
 43692.65567		 598.84995			43093.80572		210.60800		875.00000 
 43692.65567		 305.27265			43387.38302		64.65000		324.00000 
 43692.65567		 598.84995			43093.80572		210.60800		875.00000 
 43692.65567		 305.27265			43387.38302		64.65000		324.00000 
 43692.65567		 598.84995			43093.80572		210.60800		875.00000 
 43692.65567		 305.27265			43387.38302		64.65000		324.00000 
 43692.65567		 598.84995			43093.80572		210.60800		875.00000 
 43692.65567		 305.27265			43387.38302		64.65000		324.00000 
 43692.65567		 578.32341			43114.33227		210.60800		875.00000 
 43692.65567		 305.27265			43387.38302		64.65000		324.00000 
 43692.65567		 537.27032			43155.38535		210.60800		875.00000 
 43692.65567		 305.27265			43387.38302		64.65000		324.00000 
 43692.65567		 537.27032			43155.38535		210.60800		875.00000 
 43692.65567		 305.27265			43387.38302		64.65000		324.00000 
 43692.65567		 537.27032			43155.38535		210.60800		875.00000 
 43692.65567		 305.27265			43387.38302		64.65000		324.00000 
 43692.65567		 537.27032			43155.38535		210.60800		875.00000 
 43692.65567		 305.27265			43387.38302		64.65000		324.00000 
 43692.65567		 537.27032			43155.38535		210.60800		875.00000 
 43692.65567		 305.27265			43387.38302		64.65000		324.00000 
 43692.65567		 537.27032			43155.38535		210.60800		875.00000 
 43692.65567		 305.27265			43387.38302		64.65000		324.00000 
 43692.65567		 537.27032			43155.38535		210.60800		875.00000 
 43692.65567		 305.27265			43387.38302		64.65000		324.00000 
 43692.65567		 537.27032			43155.38535		210.60800		875.00000 
 43692.65567		 305.27265			43387.38302		64.65000		324.00000 
 43692.65567		 537.27032			43155.38535		210.60800		875.00000 
 43692.65567		 305.27265			43387.38302		64.65000		324.00000 
 43692.65567		 537.27032			43155.38535		210.60800		875.00000 
 43692.65567		 305.27265			43387.38302		64.65000		324.00000 
 43692.65567		 537.27032			43155.38535		210.60800		875.00000 
 43692.65567		 305.27265			43387.38302		64.65000		324.00000 
 43692.65567		 537.27032			43155.38535		210.60800		875.00000 
 43692.65567		 305.27265			43387.38302		64.65000		324.00000 
 43692.65567		 537.27032			43155.38535		210.60800		875.00000 
 43692.65567		 305.27265			43387.38302		64.65000		324.00000 
 43692.65567		 537.27032			43155.38535		210.60800		875.00000 
 43692.65567		 305.27265			43387.38302		64.65000		324.00000 
 43692.65567		 537.27032			43155.38535		210.60800		875.00000 
 43692.65567		 305.27265			43387.38302		64.65000		324.00000 
 43692.65567		 537.27032			43155.38535		210.60800		875.00000 
 43692.65567		 305.27265			43387.38302		64.65000		324.00000 
 43692.65567		 537.27032			43155.38535		210.60800		875.00000 
 43692.65567		 305.27265			43387.38302		64.65000		324.00000 
 43692.65567		 537.27032			43155.38535		210.60800		875.00000 
 43692.65567		 305.27265			43387.38302		64.65000		324.00000 
 43692.65567		 537.27032			43155.38535		210.60800		875.00000 
 43692.65567		 305.27265			43387.38302		64.65000		324.00000 
 43692.65567		 537.27032			43155.38535		210.60800		875.00000 
 43692.65567		 305.27265			43387.38302		64.65000		324.00000 
 43692.65567		 537.27032			43155.38535		210.60800		875.00000 
 43692.65567		 305.27265			43387.38302		64.65000		324.00000 
 43692.65567		 529.63254			43163.02313		183.49000		875.00000 
 43692.65567		 305.27265			43387.38302		64.65000		324.00000 
 43692.65567		 525.81365			43166.84203		183.49000		875.00000 
 43692.65567		 305.27265			43387.38302		64.65000		324.00000 
 43692.65567		 525.81365			43166.84203		183.49000		875.00000 
 43692.65567		 261.35540			43431.30027		64.65000		324.00000 
 43692.65567		 261.35540			43431.30027		183.49000		875.00000 
 43692.65567		 261.35540			43431.30027		64.65000		324.00000 
