Memory Total (MiB) 	 Memory Used (MiB) 	    Memory Free (MiB) 	 Power Drawed (W) 	 Clocks (Mhz) 	 
 43692.65567		 263.26484			43429.39083		115.28200		562.00000 
 43692.65567		 263.26484			43429.39083		66.82800		324.00000 
 43692.65567		 263.26484			43429.39083		115.28200		562.00000 
 43692.65567		 263.26484			43429.39083		66.82800		324.00000 
 43692.65567		 263.26484			43429.39083		115.28200		562.00000 
 43692.65567		 263.26484			43429.39083		66.82800		324.00000 
 43692.65567		 263.26484			43429.39083		115.28200		562.00000 
 43692.65567		 263.26484			43429.39083		66.82800		324.00000 
 43692.65567		 263.26484			43429.39083		115.28200		562.00000 
 43692.65567		 263.26484			43429.39083		66.82800		324.00000 
 43692.65567		 263.26484			43429.39083		115.28200		562.00000 
 43692.65567		 263.26484			43429.39083		66.82800		324.00000 
 43692.65567		 263.26484			43429.39083		115.28200		562.00000 
 43692.65567		 263.26484			43429.39083		66.82800		324.00000 
 43692.65567		 263.26484			43429.39083		115.28200		562.00000 
 43692.65567		 263.26484			43429.39083		66.82800		324.00000 
 43692.65567		 263.26484			43429.39083		115.28200		562.00000 
 43692.65567		 263.26484			43429.39083		66.82800		324.00000 
 43692.65567		 263.26484			43429.39083		115.28200		562.00000 
 43692.65567		 263.26484			43429.39083		66.82800		324.00000 
 43692.65567		 263.26484			43429.39083		115.12600		562.00000 
 43692.65567		 263.26484			43429.39083		66.82800		324.00000 
 43692.65567		 263.26484			43429.39083		115.12600		562.00000 
 43692.65567		 263.26484			43429.39083		66.82800		324.00000 
 43692.65567		 263.26484			43429.39083		115.12600		562.00000 
 43692.65567		 263.26484			43429.39083		66.82800		324.00000 
 43692.65567		 263.26484			43429.39083		115.12600		562.00000 
 43692.65567		 263.26484			43429.39083		66.82800		324.00000 
 43692.65567		 263.26484			43429.39083		115.12600		562.00000 
 43692.65567		 263.26484			43429.39083		66.82800		324.00000 
 43692.65567		 263.26484			43429.39083		115.12600		562.00000 
 43692.65567		 263.26484			43429.39083		66.82800		324.00000 
 43692.65567		 263.26484			43429.39083		115.12600		562.00000 
 43692.65567		 263.26484			43429.39083		66.82800		324.00000 
 43692.65567		 267.08374			43425.57194		115.12600		562.00000 
 43692.65567		 263.26484			43429.39083		66.82800		324.00000 
 43692.65567		 267.08374			43425.57194		115.12600		562.00000 
 43692.65567		 263.26484			43429.39083		66.82800		324.00000 
 43692.65567		 274.72152			43417.93415		115.12600		562.00000 
 43692.65567		 263.26484			43429.39083		66.82800		324.00000 
 43692.65567		 274.72152			43417.93415		115.12600		562.00000 
 43692.65567		 263.26484			43429.39083		66.82800		324.00000 
 43692.65567		 274.72152			43417.93415		115.12600		562.00000 
 43692.65567		 267.08374			43425.57194		66.82800		324.00000 
 43692.65567		 274.72152			43417.93415		115.12600		562.00000 
 43692.65567		 267.08374			43425.57194		66.82800		324.00000 
 43692.65567		 274.72152			43417.93415		115.12600		562.00000 
 43692.65567		 267.08374			43425.57194		66.82800		324.00000 
 43692.65567		 274.72152			43417.93415		115.12600		562.00000 
 43692.65567		 274.72152			43417.93415		66.82800		324.00000 
 43692.65567		 274.72152			43417.93415		115.12600		562.00000 
 43692.65567		 274.72152			43417.93415		66.82800		324.00000 
 43692.65567		 274.72152			43417.93415		115.12600		562.00000 
 43692.65567		 274.72152			43417.93415		66.82800		324.00000 
 43692.65567		 307.18210			43385.47357		115.12600		562.00000 
 43692.65567		 307.18210			43385.47357		66.82800		324.00000 
 43692.65567		 307.18210			43385.47357		115.12600		562.00000 
 43692.65567		 307.18210			43385.47357		66.82800		324.00000 
 43692.65567		 307.18210			43385.47357		115.12600		562.00000 
 43692.65567		 307.18210			43385.47357		66.82800		324.00000 
 43692.65567		 307.18210			43385.47357		115.12600		562.00000 
 43692.65567		 307.18210			43385.47357		66.82800		324.00000 
 43692.65567		 307.18210			43385.47357		115.12600		562.00000 
 43692.65567		 307.18210			43385.47357		66.82800		324.00000 
 43692.65567		 311.47835			43381.17732		115.12600		562.00000 
 43692.65567		 307.18210			43385.47357		66.82800		324.00000 
 43692.65567		 312.91044			43379.74524		115.12600		562.00000 
 43692.65567		 307.18210			43385.47357		66.82800		324.00000 
 43692.65567		 312.91044			43379.74524		115.12600		562.00000 
 43692.65567		 307.18210			43385.47357		66.82800		324.00000 
 43692.65567		 312.91044			43379.74524		115.12600		562.00000 
 43692.65567		 307.18210			43385.47357		66.82800		324.00000 
 43692.65567		 312.91044			43379.74524		115.12600		562.00000 
 43692.65567		 307.18210			43385.47357		66.82800		324.00000 
 43692.65567		 312.91044			43379.74524		115.12600		562.00000 
 43692.65567		 307.18210			43385.47357		66.82800		324.00000 
 43692.65567		 312.91044			43379.74524		115.12600		562.00000 
 43692.65567		 307.18210			43385.47357		66.82800		324.00000 
 43692.65567		 312.91044			43379.74524		115.12600		562.00000 
 43692.65567		 307.18210			43385.47357		66.82800		324.00000 
 43692.65567		 312.91044			43379.74524		115.12600		562.00000 
 43692.65567		 307.18210			43385.47357		66.82800		324.00000 
 43692.65567		 312.91044			43379.74524		115.12600		562.00000 
 43692.65567		 307.18210			43385.47357		66.82800		324.00000 
 43692.65567		 312.91044			43379.74524		115.12600		562.00000 
 43692.65567		 307.18210			43385.47357		66.82800		324.00000 
 43692.65567		 312.91044			43379.74524		114.97200		562.00000 
 43692.65567		 307.18210			43385.47357		66.82800		324.00000 
 43692.65567		 312.91044			43379.74524		114.97200		562.00000 
 43692.65567		 307.18210			43385.47357		66.82800		324.00000 
 43692.65567		 312.91044			43379.74524		114.97200		562.00000 
 43692.65567		 307.18210			43385.47357		66.82800		324.00000 
 43692.65567		 312.91044			43379.74524		114.97200		562.00000 
 43692.65567		 307.18210			43385.47357		66.82800		324.00000 
 43692.65567		 312.91044			43379.74524		114.97200		562.00000 
 43692.65567		 307.18210			43385.47357		66.82800		324.00000 
 43692.65567		 312.91044			43379.74524		114.97200		562.00000 
 43692.65567		 307.18210			43385.47357		66.82800		324.00000 
 43692.65567		 312.91044			43379.74524		114.97200		562.00000 
 43692.65567		 307.18210			43385.47357		66.82800		324.00000 
 43692.65567		 312.91044			43379.74524		114.97200		562.00000 
 43692.65567		 307.18210			43385.47357		66.82800		324.00000 
 43692.65567		 312.91044			43379.74524		114.97200		562.00000 
 43692.65567		 307.18210			43385.47357		66.82800		324.00000 
 43692.65567		 312.91044			43379.74524		114.97200		562.00000 
 43692.65567		 307.18210			43385.47357		66.82800		324.00000 
 43692.65567		 312.91044			43379.74524		114.97200		562.00000 
 43692.65567		 307.18210			43385.47357		66.82800		324.00000 
 43692.65567		 312.91044			43379.74524		114.97200		562.00000 
 43692.65567		 307.18210			43385.47357		66.82800		324.00000 
 43692.65567		 312.91044			43379.74524		114.97200		562.00000 
 43692.65567		 307.18210			43385.47357		66.82800		324.00000 
 43692.65567		 312.91044			43379.74524		114.97200		562.00000 
 43692.65567		 307.18210			43385.47357		66.82800		324.00000 
 43692.65567		 312.91044			43379.74524		114.97200		562.00000 
 43692.65567		 307.18210			43385.47357		66.82800		324.00000 
 43692.65567		 312.91044			43379.74524		114.97200		562.00000 
 43692.65567		 307.18210			43385.47357		66.82800		324.00000 
 43692.65567		 312.91044			43379.74524		114.97200		562.00000 
 43692.65567		 307.18210			43385.47357		66.82800		324.00000 
 43692.65567		 312.91044			43379.74524		114.97200		562.00000 
 43692.65567		 307.18210			43385.47357		66.82800		324.00000 
 43692.65567		 312.91044			43379.74524		114.97200		562.00000 
 43692.65567		 307.18210			43385.47357		66.82800		324.00000 
 43692.65567		 312.91044			43379.74524		114.97200		562.00000 
 43692.65567		 307.18210			43385.47357		66.82800		324.00000 
 43692.65567		 312.91044			43379.74524		114.97200		562.00000 
 43692.65567		 307.18210			43385.47357		66.82800		324.00000 
 43692.65567		 312.91044			43379.74524		114.97200		562.00000 
 43692.65567		 307.18210			43385.47357		66.82800		324.00000 
 43692.65567		 312.91044			43379.74524		114.97200		562.00000 
 43692.65567		 307.18210			43385.47357		66.82800		324.00000 
 43692.65567		 312.91044			43379.74524		114.97200		562.00000 
 43692.65567		 307.18210			43385.47357		66.82800		324.00000 
 43692.65567		 312.91044			43379.74524		114.97200		562.00000 
 43692.65567		 307.18210			43385.47357		66.82800		324.00000 
 43692.65567		 312.91044			43379.74524		114.97200		562.00000 
 43692.65567		 307.18210			43385.47357		66.82800		324.00000 
 43692.65567		 312.91044			43379.74524		114.97200		562.00000 
 43692.65567		 307.18210			43385.47357		66.82800		324.00000 
 43692.65567		 312.91044			43379.74524		114.97200		562.00000 
 43692.65567		 307.18210			43385.47357		66.82800		324.00000 
 43692.65567		 312.91044			43379.74524		114.97200		562.00000 
 43692.65567		 307.18210			43385.47357		66.82800		324.00000 
 43692.65567		 312.91044			43379.74524		114.97200		562.00000 
 43692.65567		 307.18210			43385.47357		66.82800		324.00000 
 43692.65567		 312.91044			43379.74524		114.97200		562.00000 
 43692.65567		 307.18210			43385.47357		66.82800		324.00000 
 43692.65567		 312.91044			43379.74524		114.81600		562.00000 
 43692.65567		 307.18210			43385.47357		66.82800		324.00000 
 43692.65567		 312.91044			43379.74524		114.81600		562.00000 
 43692.65567		 307.18210			43385.47357		66.82800		324.00000 
 43692.65567		 312.91044			43379.74524		114.81600		562.00000 
 43692.65567		 307.18210			43385.47357		66.82800		324.00000 
 43692.65567		 312.91044			43379.74524		114.81600		562.00000 
 43692.65567		 307.18210			43385.47357		66.82800		324.00000 
 43692.65567		 312.91044			43379.74524		114.81600		562.00000 
 43692.65567		 307.18210			43385.47357		66.82800		324.00000 
 43692.65567		 312.91044			43379.74524		114.81600		562.00000 
 43692.65567		 307.18210			43385.47357		66.82800		324.00000 
 43692.65567		 312.91044			43379.74524		114.81600		562.00000 
 43692.65567		 307.18210			43385.47357		66.82800		324.00000 
 43692.65567		 312.91044			43379.74524		114.81600		562.00000 
 43692.65567		 307.18210			43385.47357		66.82800		324.00000 
 43692.65567		 312.91044			43379.74524		114.81600		562.00000 
 43692.65567		 307.18210			43385.47357		66.82800		324.00000 
 43692.65567		 312.91044			43379.74524		114.81600		562.00000 
 43692.65567		 307.18210			43385.47357		66.82800		324.00000 
 43692.65567		 312.91044			43379.74524		114.81600		562.00000 
 43692.65567		 307.18210			43385.47357		66.82800		324.00000 
 43692.65567		 316.72933			43375.92634		114.81600		562.00000 
 43692.65567		 307.18210			43385.47357		66.82800		324.00000 
 43692.65567		 316.72933			43375.92634		114.81600		562.00000 
 43692.65567		 307.18210			43385.47357		66.82800		324.00000 
 43692.65567		 316.72933			43375.92634		114.81600		562.00000 
 43692.65567		 307.18210			43385.47357		66.82800		324.00000 
 43692.65567		 320.54822			43372.10745		114.81600		562.00000 
 43692.65567		 307.18210			43385.47357		66.82800		324.00000 
 43692.65567		 324.36711			43368.28856		114.81600		562.00000 
 43692.65567		 307.18210			43385.47357		66.82800		324.00000 
 43692.65567		 328.18600			43364.46967		114.81600		562.00000 
 43692.65567		 307.18210			43385.47357		66.82800		324.00000 
 43692.65567		 328.18600			43364.46967		114.81600		562.00000 
 43692.65567		 307.18210			43385.47357		66.82800		324.00000 
 43692.65567		 328.18600			43364.46967		114.81600		562.00000 
 43692.65567		 307.18210			43385.47357		66.82800		324.00000 
 43692.65567		 539.17977			43153.47590		114.81600		562.00000 
 43692.65567		 307.18210			43385.47357		66.82800		324.00000 
 43692.65567		 542.99866			43149.65701		114.81600		562.00000 
 43692.65567		 307.18210			43385.47357		66.82800		324.00000 
 43692.65567		 542.99866			43149.65701		114.81600		562.00000 
 43692.65567		 307.18210			43385.47357		66.82800		324.00000 
 43692.65567		 542.99866			43149.65701		114.81600		562.00000 
 43692.65567		 307.18210			43385.47357		66.82800		324.00000 
 43692.65567		 542.99866			43149.65701		114.81600		562.00000 
 43692.65567		 307.18210			43385.47357		66.82800		324.00000 
 43692.65567		 542.99866			43149.65701		114.81600		562.00000 
 43692.65567		 307.18210			43385.47357		66.82800		324.00000 
 43692.65567		 542.99866			43149.65701		114.81600		562.00000 
 43692.65567		 307.18210			43385.47357		66.82800		324.00000 
 43692.65567		 542.99866			43149.65701		114.81600		562.00000 
 43692.65567		 307.18210			43385.47357		66.82800		324.00000 
 43692.65567		 542.99866			43149.65701		114.81600		562.00000 
 43692.65567		 307.18210			43385.47357		66.82800		324.00000 
 43692.65567		 542.99866			43149.65701		114.81600		562.00000 
 43692.65567		 307.18210			43385.47357		66.82800		324.00000 
 43692.65567		 542.99866			43149.65701		114.81600		562.00000 
 43692.65567		 307.18210			43385.47357		66.82800		324.00000 
 43692.65567		 542.99866			43149.65701		114.81600		562.00000 
 43692.65567		 307.18210			43385.47357		66.82800		324.00000 
 43692.65567		 542.99866			43149.65701		114.81600		562.00000 
 43692.65567		 307.18210			43385.47357		66.82800		324.00000 
 43692.65567		 542.99866			43149.65701		114.81600		562.00000 
 43692.65567		 307.18210			43385.47357		66.82800		324.00000 
 43692.65567		 542.99866			43149.65701		114.81600		562.00000 
 43692.65567		 307.18210			43385.47357		66.82800		324.00000 
 43692.65567		 542.99866			43149.65701		114.81600		562.00000 
 43692.65567		 307.18210			43385.47357		66.82800		324.00000 
 43692.65567		 542.99866			43149.65701		114.81600		562.00000 
 43692.65567		 307.18210			43385.47357		66.82800		324.00000 
 43692.65567		 542.99866			43149.65701		114.81600		562.00000 
 43692.65567		 307.18210			43385.47357		66.82800		324.00000 
 43692.65567		 542.99866			43149.65701		114.81600		562.00000 
 43692.65567		 307.18210			43385.47357		66.82800		324.00000 
 43692.65567		 542.99866			43149.65701		114.81600		562.00000 
 43692.65567		 307.18210			43385.47357		66.82800		324.00000 
 43692.65567		 542.99866			43149.65701		114.81600		562.00000 
 43692.65567		 307.18210			43385.47357		66.82800		324.00000 
 43692.65567		 542.99866			43149.65701		114.81600		562.00000 
 43692.65567		 307.18210			43385.47357		66.82800		324.00000 
 43692.65567		 542.99866			43149.65701		114.81600		562.00000 
 43692.65567		 307.18210			43385.47357		66.82800		324.00000 
 43692.65567		 542.99866			43149.65701		114.81600		562.00000 
 43692.65567		 307.18210			43385.47357		66.82800		324.00000 
 43692.65567		 542.99866			43149.65701		114.81600		562.00000 
 43692.65567		 307.18210			43385.47357		66.82800		324.00000 
 43692.65567		 542.99866			43149.65701		114.81600		562.00000 
 43692.65567		 307.18210			43385.47357		66.82800		324.00000 
 43692.65567		 542.99866			43149.65701		114.81600		562.00000 
 43692.65567		 307.18210			43385.47357		66.82800		324.00000 
 43692.65567		 542.99866			43149.65701		114.81600		562.00000 
 43692.65567		 307.18210			43385.47357		66.82800		324.00000 
 43692.65567		 542.99866			43149.65701		114.81600		562.00000 
 43692.65567		 307.18210			43385.47357		66.82800		324.00000 
 43692.65567		 542.99866			43149.65701		115.66200		562.00000 
 43692.65567		 307.18210			43385.47357		66.82800		324.00000 
 43692.65567		 542.99866			43149.65701		115.66200		562.00000 
 43692.65567		 307.18210			43385.47357		66.82800		324.00000 
 43692.65567		 539.17977			43153.47590		115.66200		562.00000 
 43692.65567		 307.18210			43385.47357		66.82800		324.00000 
 43692.65567		 539.17977			43153.47590		115.66200		562.00000 
 43692.65567		 307.18210			43385.47357		66.82800		324.00000 
 43692.65567		 539.17977			43153.47590		115.66200		562.00000 
 43692.65567		 307.18210			43385.47357		66.82800		324.00000 
 43692.65567		 539.17977			43153.47590		115.66200		562.00000 
 43692.65567		 307.18210			43385.47357		66.82800		324.00000 
 43692.65567		 539.17977			43153.47590		115.66200		562.00000 
 43692.65567		 307.18210			43385.47357		66.82800		324.00000 
 43692.65567		 539.17977			43153.47590		115.66200		562.00000 
 43692.65567		 307.18210			43385.47357		66.82800		324.00000 
 43692.65567		 539.17977			43153.47590		115.66200		562.00000 
 43692.65567		 307.18210			43385.47357		66.82800		324.00000 
 43692.65567		 539.17977			43153.47590		115.66200		562.00000 
 43692.65567		 307.18210			43385.47357		66.82800		324.00000 
 43692.65567		 539.17977			43153.47590		115.66200		562.00000 
 43692.65567		 307.18210			43385.47357		66.82800		324.00000 
 43692.65567		 539.17977			43153.47590		115.66200		562.00000 
 43692.65567		 307.18210			43385.47357		66.82800		324.00000 
 43692.65567		 539.17977			43153.47590		115.66200		562.00000 
 43692.65567		 307.18210			43385.47357		66.82800		324.00000 
 43692.65567		 539.17977			43153.47590		115.66200		562.00000 
 43692.65567		 307.18210			43385.47357		66.82800		324.00000 
 43692.65567		 539.17977			43153.47590		115.66200		562.00000 
 43692.65567		 307.18210			43385.47357		66.82800		324.00000 
 43692.65567		 539.17977			43153.47590		115.66200		562.00000 
 43692.65567		 307.18210			43385.47357		66.82800		324.00000 
 43692.65567		 539.17977			43153.47590		115.66200		562.00000 
 43692.65567		 307.18210			43385.47357		66.82800		324.00000 
 43692.65567		 539.17977			43153.47590		115.66200		562.00000 
 43692.65567		 307.18210			43385.47357		66.82800		324.00000 
 43692.65567		 539.17977			43153.47590		115.66200		562.00000 
 43692.65567		 307.18210			43385.47357		66.82800		324.00000 
 43692.65567		 539.17977			43153.47590		115.66200		562.00000 
 43692.65567		 307.18210			43385.47357		66.82800		324.00000 
 43692.65567		 539.17977			43153.47590		115.66200		562.00000 
 43692.65567		 307.18210			43385.47357		66.82800		324.00000 
 43692.65567		 539.17977			43153.47590		115.66200		562.00000 
 43692.65567		 307.18210			43385.47357		66.82800		324.00000 
 43692.65567		 539.17977			43153.47590		115.66200		562.00000 
 43692.65567		 307.18210			43385.47357		66.82800		324.00000 
 43692.65567		 539.17977			43153.47590		115.66200		562.00000 
 43692.65567		 307.18210			43385.47357		66.82800		324.00000 
 43692.65567		 527.72309			43164.93258		115.66200		562.00000 
 43692.65567		 307.18210			43385.47357		66.82800		324.00000 
 43692.65567		 527.72309			43164.93258		115.66200		562.00000 
 43692.65567		 263.26484			43429.39083		66.82800		324.00000 
