Memory Total (MiB) 	 Memory Used (MiB) 	    Memory Free (MiB) 	 Power Drawed (W) 	 Clocks (Mhz) 	 
 43692.65567		 263.26484			43429.39083		113.55800		562.00000 
 43692.65567		 263.26484			43429.39083		64.34000		324.00000 
 43692.65567		 263.26484			43429.39083		113.55800		562.00000 
 43692.65567		 263.26484			43429.39083		64.34000		324.00000 
 43692.65567		 263.26484			43429.39083		113.55800		562.00000 
 43692.65567		 263.26484			43429.39083		64.34000		324.00000 
 43692.65567		 263.26484			43429.39083		113.55800		562.00000 
 43692.65567		 263.26484			43429.39083		64.34000		324.00000 
 43692.65567		 263.26484			43429.39083		113.55800		562.00000 
 43692.65567		 263.26484			43429.39083		64.34000		324.00000 
 43692.65567		 263.26484			43429.39083		113.55800		562.00000 
 43692.65567		 263.26484			43429.39083		64.34000		324.00000 
 43692.65567		 263.26484			43429.39083		113.55800		562.00000 
 43692.65567		 263.26484			43429.39083		64.34000		324.00000 
 43692.65567		 263.26484			43429.39083		113.55800		562.00000 
 43692.65567		 263.26484			43429.39083		64.34000		324.00000 
 43692.65567		 263.26484			43429.39083		113.55800		562.00000 
 43692.65567		 263.26484			43429.39083		64.34000		324.00000 
 43692.65567		 263.26484			43429.39083		113.55800		562.00000 
 43692.65567		 263.26484			43429.39083		64.34000		324.00000 
 43692.65567		 263.26484			43429.39083		113.55800		562.00000 
 43692.65567		 263.26484			43429.39083		64.34000		324.00000 
 43692.65567		 263.26484			43429.39083		113.55800		562.00000 
 43692.65567		 263.26484			43429.39083		64.34000		324.00000 
 43692.65567		 263.26484			43429.39083		113.55800		562.00000 
 43692.65567		 263.26484			43429.39083		64.34000		324.00000 
 43692.65567		 263.26484			43429.39083		113.55800		562.00000 
 43692.65567		 263.26484			43429.39083		64.34000		324.00000 
 43692.65567		 263.26484			43429.39083		113.55800		562.00000 
 43692.65567		 263.26484			43429.39083		64.34000		324.00000 
 43692.65567		 263.26484			43429.39083		113.55800		562.00000 
 43692.65567		 263.26484			43429.39083		64.34000		324.00000 
 43692.65567		 263.26484			43429.39083		113.55800		562.00000 
 43692.65567		 263.26484			43429.39083		64.34000		324.00000 
 43692.65567		 267.08374			43425.57194		113.55800		562.00000 
 43692.65567		 263.26484			43429.39083		64.34000		324.00000 
 43692.65567		 267.08374			43425.57194		113.55800		562.00000 
 43692.65567		 263.26484			43429.39083		64.34000		324.00000 
 43692.65567		 274.72152			43417.93415		113.55800		562.00000 
 43692.65567		 263.26484			43429.39083		64.34000		324.00000 
 43692.65567		 274.72152			43417.93415		113.55800		562.00000 
 43692.65567		 263.26484			43429.39083		64.34000		324.00000 
 43692.65567		 274.72152			43417.93415		113.55800		562.00000 
 43692.65567		 267.08374			43425.57194		64.34000		324.00000 
 43692.65567		 274.72152			43417.93415		114.35800		562.00000 
 43692.65567		 267.08374			43425.57194		64.34000		324.00000 
 43692.65567		 274.72152			43417.93415		114.35800		562.00000 
 43692.65567		 267.08374			43425.57194		64.34000		324.00000 
 43692.65567		 274.72152			43417.93415		114.35800		562.00000 
 43692.65567		 274.72152			43417.93415		64.34000		324.00000 
 43692.65567		 274.72152			43417.93415		114.35800		562.00000 
 43692.65567		 274.72152			43417.93415		64.34000		324.00000 
 43692.65567		 274.72152			43417.93415		114.35800		562.00000 
 43692.65567		 274.72152			43417.93415		64.34000		324.00000 
 43692.65567		 307.18210			43385.47357		114.35800		562.00000 
 43692.65567		 307.18210			43385.47357		64.34000		324.00000 
 43692.65567		 307.18210			43385.47357		114.35800		562.00000 
 43692.65567		 307.18210			43385.47357		64.34000		324.00000 
 43692.65567		 307.18210			43385.47357		114.35800		562.00000 
 43692.65567		 307.18210			43385.47357		64.34000		324.00000 
 43692.65567		 307.18210			43385.47357		114.35800		562.00000 
 43692.65567		 307.18210			43385.47357		64.34000		324.00000 
 43692.65567		 307.18210			43385.47357		114.35800		562.00000 
 43692.65567		 307.18210			43385.47357		64.34000		324.00000 
 43692.65567		 311.95571			43380.69996		114.35800		562.00000 
 43692.65567		 307.18210			43385.47357		64.34000		324.00000 
 43692.65567		 312.91044			43379.74524		114.35800		562.00000 
 43692.65567		 307.18210			43385.47357		64.34000		324.00000 
 43692.65567		 312.91044			43379.74524		114.35800		562.00000 
 43692.65567		 307.18210			43385.47357		64.34000		324.00000 
 43692.65567		 312.91044			43379.74524		114.35800		562.00000 
 43692.65567		 307.18210			43385.47357		64.34000		324.00000 
 43692.65567		 312.91044			43379.74524		114.35800		562.00000 
 43692.65567		 307.18210			43385.47357		64.34000		324.00000 
 43692.65567		 312.91044			43379.74524		114.35800		562.00000 
 43692.65567		 307.18210			43385.47357		64.34000		324.00000 
 43692.65567		 312.91044			43379.74524		114.35800		562.00000 
 43692.65567		 307.18210			43385.47357		64.34000		324.00000 
 43692.65567		 312.91044			43379.74524		114.35800		562.00000 
 43692.65567		 307.18210			43385.47357		64.34000		324.00000 
 43692.65567		 312.91044			43379.74524		114.35800		562.00000 
 43692.65567		 307.18210			43385.47357		64.34000		324.00000 
 43692.65567		 312.91044			43379.74524		114.35800		562.00000 
 43692.65567		 307.18210			43385.47357		64.34000		324.00000 
 43692.65567		 312.91044			43379.74524		114.35800		562.00000 
 43692.65567		 307.18210			43385.47357		64.34000		324.00000 
 43692.65567		 312.91044			43379.74524		114.35800		562.00000 
 43692.65567		 307.18210			43385.47357		64.34000		324.00000 
 43692.65567		 312.91044			43379.74524		114.35800		562.00000 
 43692.65567		 307.18210			43385.47357		64.34000		324.00000 
 43692.65567		 312.91044			43379.74524		114.35800		562.00000 
 43692.65567		 307.18210			43385.47357		64.34000		324.00000 
 43692.65567		 312.91044			43379.74524		114.35800		562.00000 
 43692.65567		 307.18210			43385.47357		64.34000		324.00000 
 43692.65567		 312.91044			43379.74524		114.35800		562.00000 
 43692.65567		 307.18210			43385.47357		64.34000		324.00000 
 43692.65567		 312.91044			43379.74524		114.35800		562.00000 
 43692.65567		 307.18210			43385.47357		64.34000		324.00000 
 43692.65567		 312.91044			43379.74524		114.35800		562.00000 
 43692.65567		 307.18210			43385.47357		64.34000		324.00000 
 43692.65567		 312.91044			43379.74524		114.35800		562.00000 
 43692.65567		 307.18210			43385.47357		64.34000		324.00000 
 43692.65567		 312.91044			43379.74524		114.35800		562.00000 
 43692.65567		 307.18210			43385.47357		64.34000		324.00000 
 43692.65567		 312.91044			43379.74524		114.20800		562.00000 
 43692.65567		 307.18210			43385.47357		64.34000		324.00000 
 43692.65567		 312.91044			43379.74524		114.20800		562.00000 
 43692.65567		 307.18210			43385.47357		64.34000		324.00000 
 43692.65567		 312.91044			43379.74524		114.20800		562.00000 
 43692.65567		 307.18210			43385.47357		64.34000		324.00000 
 43692.65567		 312.91044			43379.74524		114.20800		562.00000 
 43692.65567		 307.18210			43385.47357		64.34000		324.00000 
 43692.65567		 312.91044			43379.74524		114.20800		562.00000 
 43692.65567		 307.18210			43385.47357		64.34000		324.00000 
 43692.65567		 312.91044			43379.74524		114.20800		562.00000 
 43692.65567		 307.18210			43385.47357		64.34000		324.00000 
 43692.65567		 312.91044			43379.74524		114.20800		562.00000 
 43692.65567		 307.18210			43385.47357		64.34000		324.00000 
 43692.65567		 312.91044			43379.74524		114.20800		562.00000 
 43692.65567		 307.18210			43385.47357		64.34000		324.00000 
 43692.65567		 312.91044			43379.74524		114.20800		562.00000 
 43692.65567		 307.18210			43385.47357		64.34000		324.00000 
 43692.65567		 312.91044			43379.74524		114.20800		562.00000 
 43692.65567		 307.18210			43385.47357		64.34000		324.00000 
 43692.65567		 312.91044			43379.74524		114.20800		562.00000 
 43692.65567		 307.18210			43385.47357		64.34000		324.00000 
 43692.65567		 312.91044			43379.74524		114.20800		562.00000 
 43692.65567		 307.18210			43385.47357		64.34000		324.00000 
 43692.65567		 312.91044			43379.74524		114.20800		562.00000 
 43692.65567		 307.18210			43385.47357		64.34000		324.00000 
 43692.65567		 312.91044			43379.74524		114.20800		562.00000 
 43692.65567		 307.18210			43385.47357		64.34000		324.00000 
 43692.65567		 312.91044			43379.74524		114.20800		562.00000 
 43692.65567		 307.18210			43385.47357		64.34000		324.00000 
 43692.65567		 312.91044			43379.74524		114.20800		562.00000 
 43692.65567		 307.18210			43385.47357		64.34000		324.00000 
 43692.65567		 312.91044			43379.74524		114.20800		562.00000 
 43692.65567		 307.18210			43385.47357		64.34000		324.00000 
 43692.65567		 312.91044			43379.74524		114.20800		562.00000 
 43692.65567		 307.18210			43385.47357		64.34000		324.00000 
 43692.65567		 312.91044			43379.74524		114.20800		562.00000 
 43692.65567		 307.18210			43385.47357		64.34000		324.00000 
 43692.65567		 312.91044			43379.74524		114.20800		562.00000 
 43692.65567		 307.18210			43385.47357		64.34000		324.00000 
 43692.65567		 312.91044			43379.74524		114.20800		562.00000 
 43692.65567		 307.18210			43385.47357		64.34000		324.00000 
 43692.65567		 312.91044			43379.74524		114.20800		562.00000 
 43692.65567		 307.18210			43385.47357		64.34000		324.00000 
 43692.65567		 312.91044			43379.74524		114.20800		562.00000 
 43692.65567		 307.18210			43385.47357		64.34000		324.00000 
 43692.65567		 312.91044			43379.74524		114.20800		562.00000 
 43692.65567		 307.18210			43385.47357		64.34000		324.00000 
 43692.65567		 312.91044			43379.74524		114.20800		562.00000 
 43692.65567		 307.18210			43385.47357		64.34000		324.00000 
 43692.65567		 312.91044			43379.74524		114.20800		562.00000 
 43692.65567		 307.18210			43385.47357		64.34000		324.00000 
 43692.65567		 312.91044			43379.74524		114.20800		562.00000 
 43692.65567		 307.18210			43385.47357		64.34000		324.00000 
 43692.65567		 312.91044			43379.74524		114.20800		562.00000 
 43692.65567		 307.18210			43385.47357		64.34000		324.00000 
 43692.65567		 312.91044			43379.74524		114.20800		562.00000 
 43692.65567		 307.18210			43385.47357		64.34000		324.00000 
 43692.65567		 312.91044			43379.74524		114.20800		562.00000 
 43692.65567		 307.18210			43385.47357		64.34000		324.00000 
 43692.65567		 312.91044			43379.74524		114.20800		562.00000 
 43692.65567		 307.18210			43385.47357		64.34000		324.00000 
 43692.65567		 312.91044			43379.74524		114.05600		562.00000 
 43692.65567		 307.18210			43385.47357		64.34000		324.00000 
 43692.65567		 316.72933			43375.92634		114.05600		562.00000 
 43692.65567		 307.18210			43385.47357		64.34000		324.00000 
 43692.65567		 316.72933			43375.92634		114.05600		562.00000 
 43692.65567		 307.18210			43385.47357		64.34000		324.00000 
 43692.65567		 316.72933			43375.92634		114.05600		562.00000 
 43692.65567		 307.18210			43385.47357		64.34000		324.00000 
 43692.65567		 320.54822			43372.10745		114.05600		562.00000 
 43692.65567		 307.18210			43385.47357		64.34000		324.00000 
 43692.65567		 324.36711			43368.28856		114.05600		562.00000 
 43692.65567		 307.18210			43385.47357		64.34000		324.00000 
 43692.65567		 328.18600			43364.46967		114.05600		562.00000 
 43692.65567		 307.18210			43385.47357		64.34000		324.00000 
 43692.65567		 328.18600			43364.46967		114.05600		562.00000 
 43692.65567		 307.18210			43385.47357		64.34000		324.00000 
 43692.65567		 328.18600			43364.46967		114.05600		562.00000 
 43692.65567		 307.18210			43385.47357		64.34000		324.00000 
 43692.65567		 539.17977			43153.47590		114.05600		562.00000 
 43692.65567		 307.18210			43385.47357		64.34000		324.00000 
 43692.65567		 542.99866			43149.65701		114.05600		562.00000 
 43692.65567		 307.18210			43385.47357		64.34000		324.00000 
 43692.65567		 542.99866			43149.65701		114.05600		562.00000 
 43692.65567		 307.18210			43385.47357		64.34000		324.00000 
 43692.65567		 542.99866			43149.65701		114.05600		562.00000 
 43692.65567		 307.18210			43385.47357		64.34000		324.00000 
 43692.65567		 542.99866			43149.65701		114.05600		562.00000 
 43692.65567		 307.18210			43385.47357		64.34000		324.00000 
 43692.65567		 542.99866			43149.65701		114.05600		562.00000 
 43692.65567		 307.18210			43385.47357		64.34000		324.00000 
 43692.65567		 542.99866			43149.65701		114.05600		562.00000 
 43692.65567		 307.18210			43385.47357		64.34000		324.00000 
 43692.65567		 542.99866			43149.65701		114.05600		562.00000 
 43692.65567		 307.18210			43385.47357		64.34000		324.00000 
 43692.65567		 542.99866			43149.65701		114.05600		562.00000 
 43692.65567		 307.18210			43385.47357		64.34000		324.00000 
 43692.65567		 542.99866			43149.65701		114.05600		562.00000 
 43692.65567		 307.18210			43385.47357		64.34000		324.00000 
 43692.65567		 542.99866			43149.65701		114.05600		562.00000 
 43692.65567		 307.18210			43385.47357		64.34000		324.00000 
 43692.65567		 542.99866			43149.65701		114.05600		562.00000 
 43692.65567		 307.18210			43385.47357		64.34000		324.00000 
 43692.65567		 542.99866			43149.65701		114.05600		562.00000 
 43692.65567		 307.18210			43385.47357		64.34000		324.00000 
 43692.65567		 542.99866			43149.65701		114.05600		562.00000 
 43692.65567		 307.18210			43385.47357		64.34000		324.00000 
 43692.65567		 542.99866			43149.65701		114.05600		562.00000 
 43692.65567		 307.18210			43385.47357		64.34000		324.00000 
 43692.65567		 542.99866			43149.65701		114.05600		562.00000 
 43692.65567		 307.18210			43385.47357		64.34000		324.00000 
 43692.65567		 542.99866			43149.65701		114.05600		562.00000 
 43692.65567		 307.18210			43385.47357		64.34000		324.00000 
 43692.65567		 542.99866			43149.65701		114.05600		562.00000 
 43692.65567		 307.18210			43385.47357		64.34000		324.00000 
 43692.65567		 542.99866			43149.65701		114.05600		562.00000 
 43692.65567		 307.18210			43385.47357		64.34000		324.00000 
 43692.65567		 542.99866			43149.65701		114.05600		562.00000 
 43692.65567		 307.18210			43385.47357		64.34000		324.00000 
 43692.65567		 542.99866			43149.65701		114.05600		562.00000 
 43692.65567		 307.18210			43385.47357		64.34000		324.00000 
 43692.65567		 542.99866			43149.65701		114.05600		562.00000 
 43692.65567		 307.18210			43385.47357		64.34000		324.00000 
 43692.65567		 542.99866			43149.65701		114.05600		562.00000 
 43692.65567		 307.18210			43385.47357		64.34000		324.00000 
 43692.65567		 542.99866			43149.65701		114.05600		562.00000 
 43692.65567		 307.18210			43385.47357		64.34000		324.00000 
 43692.65567		 542.99866			43149.65701		114.05600		562.00000 
 43692.65567		 307.18210			43385.47357		64.34000		324.00000 
 43692.65567		 542.99866			43149.65701		114.05600		562.00000 
 43692.65567		 307.18210			43385.47357		64.34000		324.00000 
 43692.65567		 542.99866			43149.65701		114.05600		562.00000 
 43692.65567		 307.18210			43385.47357		64.34000		324.00000 
 43692.65567		 542.99866			43149.65701		114.05600		562.00000 
 43692.65567		 307.18210			43385.47357		64.34000		324.00000 
 43692.65567		 542.99866			43149.65701		114.05600		562.00000 
 43692.65567		 307.18210			43385.47357		64.34000		324.00000 
 43692.65567		 542.99866			43149.65701		114.05600		562.00000 
 43692.65567		 307.18210			43385.47357		64.34000		324.00000 
 43692.65567		 542.99866			43149.65701		114.05600		562.00000 
 43692.65567		 307.18210			43385.47357		64.34000		324.00000 
 43692.65567		 542.99866			43149.65701		114.05600		562.00000 
 43692.65567		 307.18210			43385.47357		64.34000		324.00000 
 43692.65567		 542.99866			43149.65701		114.05600		562.00000 
 43692.65567		 307.18210			43385.47357		64.34000		324.00000 
 43692.65567		 539.17977			43153.47590		114.05600		562.00000 
 43692.65567		 307.18210			43385.47357		64.34000		324.00000 
 43692.65567		 539.17977			43153.47590		114.05600		562.00000 
 43692.65567		 307.18210			43385.47357		64.34000		324.00000 
 43692.65567		 539.17977			43153.47590		114.05600		562.00000 
 43692.65567		 307.18210			43385.47357		64.34000		324.00000 
 43692.65567		 539.17977			43153.47590		114.05600		562.00000 
 43692.65567		 307.18210			43385.47357		64.34000		324.00000 
 43692.65567		 539.17977			43153.47590		114.05600		562.00000 
 43692.65567		 307.18210			43385.47357		68.39400		324.00000 
 43692.65567		 539.17977			43153.47590		114.05600		562.00000 
 43692.65567		 307.18210			43385.47357		68.39400		324.00000 
 43692.65567		 539.17977			43153.47590		114.05600		562.00000 
 43692.65567		 307.18210			43385.47357		68.39400		324.00000 
 43692.65567		 539.17977			43153.47590		114.05600		562.00000 
 43692.65567		 307.18210			43385.47357		68.39400		324.00000 
 43692.65567		 539.17977			43153.47590		114.05600		562.00000 
 43692.65567		 307.18210			43385.47357		68.39400		324.00000 
 43692.65567		 539.17977			43153.47590		114.05600		562.00000 
 43692.65567		 307.18210			43385.47357		68.39400		324.00000 
 43692.65567		 539.17977			43153.47590		114.92600		562.00000 
 43692.65567		 307.18210			43385.47357		68.39400		324.00000 
 43692.65567		 539.17977			43153.47590		114.92600		562.00000 
 43692.65567		 307.18210			43385.47357		68.39400		324.00000 
 43692.65567		 539.17977			43153.47590		114.92600		562.00000 
 43692.65567		 307.18210			43385.47357		68.39400		324.00000 
 43692.65567		 539.17977			43153.47590		114.92600		562.00000 
 43692.65567		 307.18210			43385.47357		68.39400		324.00000 
 43692.65567		 539.17977			43153.47590		114.92600		562.00000 
 43692.65567		 307.18210			43385.47357		68.39400		324.00000 
 43692.65567		 539.17977			43153.47590		114.92600		562.00000 
 43692.65567		 307.18210			43385.47357		68.39400		324.00000 
 43692.65567		 539.17977			43153.47590		114.92600		562.00000 
 43692.65567		 307.18210			43385.47357		68.39400		324.00000 
 43692.65567		 539.17977			43153.47590		114.92600		562.00000 
 43692.65567		 307.18210			43385.47357		68.39400		324.00000 
 43692.65567		 539.17977			43153.47590		114.92600		562.00000 
 43692.65567		 307.18210			43385.47357		68.39400		324.00000 
 43692.65567		 539.17977			43153.47590		114.92600		562.00000 
 43692.65567		 307.18210			43385.47357		68.39400		324.00000 
 43692.65567		 527.72309			43164.93258		114.92600		562.00000 
 43692.65567		 307.18210			43385.47357		68.39400		324.00000 
 43692.65567		 527.72309			43164.93258		114.92600		562.00000 
 43692.65567		 263.26484			43429.39083		68.39400		324.00000 
 43692.65567		 263.26484			43429.39083		114.92600		562.00000 
 43692.65567		 263.26484			43429.39083		68.39400		324.00000 
