Memory Total (MiB) 	 Memory Used (MiB) 	    Memory Free (MiB) 	 Power Drawed (W) 	 Clocks (Mhz) 	 
 43692.65567		 263.26484			43429.39083		115.38000		562.00000 
 43692.65567		 263.26484			43429.39083		68.51400		324.00000 
 43692.65567		 263.26484			43429.39083		115.38000		562.00000 
 43692.65567		 263.26484			43429.39083		68.51400		324.00000 
 43692.65567		 263.26484			43429.39083		115.38000		562.00000 
 43692.65567		 263.26484			43429.39083		68.51400		324.00000 
 43692.65567		 263.26484			43429.39083		115.38000		562.00000 
 43692.65567		 263.26484			43429.39083		68.51400		324.00000 
 43692.65567		 263.26484			43429.39083		115.38000		562.00000 
 43692.65567		 263.26484			43429.39083		68.51400		324.00000 
 43692.65567		 263.26484			43429.39083		115.38000		562.00000 
 43692.65567		 263.26484			43429.39083		68.51400		324.00000 
 43692.65567		 263.26484			43429.39083		115.38000		562.00000 
 43692.65567		 263.26484			43429.39083		68.51400		324.00000 
 43692.65567		 263.26484			43429.39083		115.38000		562.00000 
 43692.65567		 263.26484			43429.39083		68.51400		324.00000 
 43692.65567		 263.26484			43429.39083		115.38000		562.00000 
 43692.65567		 263.26484			43429.39083		68.51400		324.00000 
 43692.65567		 263.26484			43429.39083		115.53400		562.00000 
 43692.65567		 263.26484			43429.39083		68.51400		324.00000 
 43692.65567		 263.26484			43429.39083		115.53400		562.00000 
 43692.65567		 263.26484			43429.39083		68.51400		324.00000 
 43692.65567		 263.26484			43429.39083		115.53400		562.00000 
 43692.65567		 263.26484			43429.39083		68.51400		324.00000 
 43692.65567		 263.26484			43429.39083		115.53400		562.00000 
 43692.65567		 263.26484			43429.39083		68.51400		324.00000 
 43692.65567		 263.26484			43429.39083		115.53400		562.00000 
 43692.65567		 263.26484			43429.39083		68.51400		324.00000 
 43692.65567		 263.26484			43429.39083		115.53400		562.00000 
 43692.65567		 263.26484			43429.39083		68.51400		324.00000 
 43692.65567		 263.26484			43429.39083		115.53400		562.00000 
 43692.65567		 263.26484			43429.39083		68.51400		324.00000 
 43692.65567		 263.26484			43429.39083		115.53400		562.00000 
 43692.65567		 263.26484			43429.39083		68.51400		324.00000 
 43692.65567		 263.26484			43429.39083		115.53400		562.00000 
 43692.65567		 263.26484			43429.39083		68.51400		324.00000 
 43692.65567		 263.26484			43429.39083		115.53400		562.00000 
 43692.65567		 263.26484			43429.39083		68.51400		324.00000 
 43692.65567		 267.08374			43425.57194		115.53400		562.00000 
 43692.65567		 263.26484			43429.39083		68.51400		324.00000 
 43692.65567		 267.08374			43425.57194		115.53400		562.00000 
 43692.65567		 263.26484			43429.39083		68.51400		324.00000 
 43692.65567		 274.72152			43417.93415		115.53400		562.00000 
 43692.65567		 263.26484			43429.39083		68.51400		324.00000 
 43692.65567		 274.72152			43417.93415		115.53400		562.00000 
 43692.65567		 263.26484			43429.39083		68.51400		324.00000 
 43692.65567		 274.72152			43417.93415		115.53400		562.00000 
 43692.65567		 267.08374			43425.57194		68.51400		324.00000 
 43692.65567		 274.72152			43417.93415		115.53400		562.00000 
 43692.65567		 267.08374			43425.57194		68.51400		324.00000 
 43692.65567		 274.72152			43417.93415		115.53400		562.00000 
 43692.65567		 274.72152			43417.93415		68.51400		324.00000 
 43692.65567		 274.72152			43417.93415		115.53400		562.00000 
 43692.65567		 274.72152			43417.93415		68.51400		324.00000 
 43692.65567		 274.72152			43417.93415		115.53400		562.00000 
 43692.65567		 274.72152			43417.93415		68.51400		324.00000 
 43692.65567		 274.72152			43417.93415		115.53400		562.00000 
 43692.65567		 274.72152			43417.93415		68.51400		324.00000 
 43692.65567		 307.18210			43385.47357		115.53400		562.00000 
 43692.65567		 307.18210			43385.47357		68.51400		324.00000 
 43692.65567		 307.18210			43385.47357		115.53400		562.00000 
 43692.65567		 307.18210			43385.47357		68.51400		324.00000 
 43692.65567		 307.18210			43385.47357		115.53400		562.00000 
 43692.65567		 307.18210			43385.47357		68.51400		324.00000 
 43692.65567		 307.18210			43385.47357		115.53400		562.00000 
 43692.65567		 307.18210			43385.47357		68.51400		324.00000 
 43692.65567		 307.18210			43385.47357		115.53400		562.00000 
 43692.65567		 307.18210			43385.47357		68.51400		324.00000 
 43692.65567		 311.47835			43381.17732		115.53400		562.00000 
 43692.65567		 307.18210			43385.47357		68.51400		324.00000 
 43692.65567		 312.91044			43379.74524		115.53400		562.00000 
 43692.65567		 307.18210			43385.47357		68.51400		324.00000 
 43692.65567		 312.91044			43379.74524		115.53400		562.00000 
 43692.65567		 307.18210			43385.47357		68.51400		324.00000 
 43692.65567		 312.91044			43379.74524		115.53400		562.00000 
 43692.65567		 307.18210			43385.47357		68.51400		324.00000 
 43692.65567		 312.91044			43379.74524		115.53400		562.00000 
 43692.65567		 307.18210			43385.47357		68.51400		324.00000 
 43692.65567		 312.91044			43379.74524		115.53400		562.00000 
 43692.65567		 307.18210			43385.47357		68.51400		324.00000 
 43692.65567		 312.91044			43379.74524		115.86200		562.00000 
 43692.65567		 307.18210			43385.47357		68.51400		324.00000 
 43692.65567		 312.91044			43379.74524		115.86200		562.00000 
 43692.65567		 307.18210			43385.47357		68.51400		324.00000 
 43692.65567		 312.91044			43379.74524		115.86200		562.00000 
 43692.65567		 307.18210			43385.47357		68.51400		324.00000 
 43692.65567		 312.91044			43379.74524		115.86200		562.00000 
 43692.65567		 307.18210			43385.47357		68.51400		324.00000 
 43692.65567		 312.91044			43379.74524		115.86200		562.00000 
 43692.65567		 307.18210			43385.47357		68.51400		324.00000 
 43692.65567		 312.91044			43379.74524		115.86200		562.00000 
 43692.65567		 307.18210			43385.47357		68.51400		324.00000 
 43692.65567		 312.91044			43379.74524		115.86200		562.00000 
 43692.65567		 307.18210			43385.47357		68.51400		324.00000 
 43692.65567		 312.91044			43379.74524		115.86200		562.00000 
 43692.65567		 307.18210			43385.47357		68.51400		324.00000 
 43692.65567		 312.91044			43379.74524		115.86200		562.00000 
 43692.65567		 307.18210			43385.47357		68.51400		324.00000 
 43692.65567		 312.91044			43379.74524		115.86200		562.00000 
 43692.65567		 307.18210			43385.47357		68.51400		324.00000 
 43692.65567		 312.91044			43379.74524		115.86200		562.00000 
 43692.65567		 307.18210			43385.47357		68.51400		324.00000 
 43692.65567		 312.91044			43379.74524		115.86200		562.00000 
 43692.65567		 307.18210			43385.47357		68.51400		324.00000 
 43692.65567		 312.91044			43379.74524		115.86200		562.00000 
 43692.65567		 307.18210			43385.47357		68.51400		324.00000 
 43692.65567		 312.91044			43379.74524		115.86200		562.00000 
 43692.65567		 307.18210			43385.47357		68.51400		324.00000 
 43692.65567		 312.91044			43379.74524		115.86200		562.00000 
 43692.65567		 307.18210			43385.47357		68.51400		324.00000 
 43692.65567		 312.91044			43379.74524		115.86200		562.00000 
 43692.65567		 307.18210			43385.47357		68.51400		324.00000 
 43692.65567		 312.91044			43379.74524		115.86200		562.00000 
 43692.65567		 307.18210			43385.47357		68.51400		324.00000 
 43692.65567		 312.91044			43379.74524		115.86200		562.00000 
 43692.65567		 307.18210			43385.47357		68.51400		324.00000 
 43692.65567		 312.91044			43379.74524		115.86200		562.00000 
 43692.65567		 307.18210			43385.47357		68.51400		324.00000 
 43692.65567		 312.91044			43379.74524		115.86200		562.00000 
 43692.65567		 307.18210			43385.47357		68.51400		324.00000 
 43692.65567		 312.91044			43379.74524		115.86200		562.00000 
 43692.65567		 307.18210			43385.47357		68.51400		324.00000 
 43692.65567		 312.91044			43379.74524		115.86200		562.00000 
 43692.65567		 307.18210			43385.47357		68.51400		324.00000 
 43692.65567		 312.91044			43379.74524		115.86200		562.00000 
 43692.65567		 307.18210			43385.47357		68.51400		324.00000 
 43692.65567		 312.91044			43379.74524		115.86200		562.00000 
 43692.65567		 307.18210			43385.47357		68.51400		324.00000 
 43692.65567		 312.91044			43379.74524		115.86200		562.00000 
 43692.65567		 307.18210			43385.47357		68.51400		324.00000 
 43692.65567		 312.91044			43379.74524		115.86200		562.00000 
 43692.65567		 307.18210			43385.47357		68.51400		324.00000 
 43692.65567		 312.91044			43379.74524		115.86200		562.00000 
 43692.65567		 307.18210			43385.47357		68.51400		324.00000 
 43692.65567		 312.91044			43379.74524		115.86200		562.00000 
 43692.65567		 307.18210			43385.47357		68.51400		324.00000 
 43692.65567		 312.91044			43379.74524		115.86200		562.00000 
 43692.65567		 307.18210			43385.47357		68.51400		324.00000 
 43692.65567		 312.91044			43379.74524		115.86200		562.00000 
 43692.65567		 307.18210			43385.47357		68.51400		324.00000 
 43692.65567		 312.91044			43379.74524		115.38000		562.00000 
 43692.65567		 307.18210			43385.47357		68.51400		324.00000 
 43692.65567		 312.91044			43379.74524		115.38000		562.00000 
 43692.65567		 307.18210			43385.47357		68.51400		324.00000 
 43692.65567		 312.91044			43379.74524		115.38000		562.00000 
 43692.65567		 307.18210			43385.47357		68.51400		324.00000 
 43692.65567		 312.91044			43379.74524		115.38000		562.00000 
 43692.65567		 307.18210			43385.47357		68.51400		324.00000 
 43692.65567		 312.91044			43379.74524		115.38000		562.00000 
 43692.65567		 307.18210			43385.47357		68.51400		324.00000 
 43692.65567		 312.91044			43379.74524		115.38000		562.00000 
 43692.65567		 307.18210			43385.47357		68.51400		324.00000 
 43692.65567		 312.91044			43379.74524		115.38000		562.00000 
 43692.65567		 307.18210			43385.47357		68.51400		324.00000 
 43692.65567		 312.91044			43379.74524		115.38000		562.00000 
 43692.65567		 307.18210			43385.47357		68.51400		324.00000 
 43692.65567		 312.91044			43379.74524		115.38000		562.00000 
 43692.65567		 307.18210			43385.47357		68.51400		324.00000 
 43692.65567		 312.91044			43379.74524		115.38000		562.00000 
 43692.65567		 307.18210			43385.47357		68.51400		324.00000 
 43692.65567		 312.91044			43379.74524		115.38000		562.00000 
 43692.65567		 307.18210			43385.47357		68.51400		324.00000 
 43692.65567		 312.91044			43379.74524		115.38000		562.00000 
 43692.65567		 307.18210			43385.47357		68.51400		324.00000 
 43692.65567		 312.91044			43379.74524		115.38000		562.00000 
 43692.65567		 307.18210			43385.47357		68.51400		324.00000 
 43692.65567		 312.91044			43379.74524		115.38000		562.00000 
 43692.65567		 307.18210			43385.47357		68.51400		324.00000 
 43692.65567		 312.91044			43379.74524		115.38000		562.00000 
 43692.65567		 307.18210			43385.47357		68.51400		324.00000 
 43692.65567		 312.91044			43379.74524		115.38000		562.00000 
 43692.65567		 307.18210			43385.47357		68.51400		324.00000 
 43692.65567		 312.91044			43379.74524		115.38000		562.00000 
 43692.65567		 307.18210			43385.47357		68.51400		324.00000 
 43692.65567		 312.91044			43379.74524		115.38000		562.00000 
 43692.65567		 307.18210			43385.47357		68.51400		324.00000 
 43692.65567		 316.72933			43375.92634		115.38000		562.00000 
 43692.65567		 307.18210			43385.47357		68.51400		324.00000 
 43692.65567		 316.72933			43375.92634		115.38000		562.00000 
 43692.65567		 307.18210			43385.47357		68.51400		324.00000 
 43692.65567		 320.54822			43372.10745		115.38000		562.00000 
 43692.65567		 307.18210			43385.47357		68.51400		324.00000 
 43692.65567		 324.36711			43368.28856		115.38000		562.00000 
 43692.65567		 307.18210			43385.47357		68.51400		324.00000 
 43692.65567		 328.18600			43364.46967		115.38000		562.00000 
 43692.65567		 307.18210			43385.47357		68.51400		324.00000 
 43692.65567		 328.18600			43364.46967		115.38000		562.00000 
 43692.65567		 307.18210			43385.47357		68.51400		324.00000 
 43692.65567		 328.18600			43364.46967		115.38000		562.00000 
 43692.65567		 307.18210			43385.47357		68.51400		324.00000 
 43692.65567		 328.18600			43364.46967		115.38000		562.00000 
 43692.65567		 307.18210			43385.47357		68.51400		324.00000 
 43692.65567		 539.17977			43153.47590		115.38000		562.00000 
 43692.65567		 307.18210			43385.47357		68.51400		324.00000 
 43692.65567		 546.81755			43145.83812		115.38000		562.00000 
 43692.65567		 307.18210			43385.47357		68.51400		324.00000 
 43692.65567		 546.81755			43145.83812		115.38000		562.00000 
 43692.65567		 307.18210			43385.47357		68.51400		324.00000 
 43692.65567		 546.81755			43145.83812		115.38000		562.00000 
 43692.65567		 307.18210			43385.47357		68.51400		324.00000 
 43692.65567		 546.81755			43145.83812		115.38000		562.00000 
 43692.65567		 307.18210			43385.47357		68.51400		324.00000 
 43692.65567		 546.81755			43145.83812		115.38000		562.00000 
 43692.65567		 307.18210			43385.47357		68.51400		324.00000 
 43692.65567		 546.81755			43145.83812		115.38000		562.00000 
 43692.65567		 307.18210			43385.47357		68.51400		324.00000 
 43692.65567		 546.81755			43145.83812		115.38000		562.00000 
 43692.65567		 307.18210			43385.47357		68.51400		324.00000 
 43692.65567		 546.81755			43145.83812		115.38000		562.00000 
 43692.65567		 307.18210			43385.47357		68.51400		324.00000 
 43692.65567		 546.81755			43145.83812		115.38000		562.00000 
 43692.65567		 307.18210			43385.47357		68.51400		324.00000 
 43692.65567		 546.81755			43145.83812		115.38000		562.00000 
 43692.65567		 307.18210			43385.47357		68.51400		324.00000 
 43692.65567		 546.81755			43145.83812		115.38000		562.00000 
 43692.65567		 307.18210			43385.47357		68.51400		324.00000 
 43692.65567		 546.81755			43145.83812		115.38000		562.00000 
 43692.65567		 307.18210			43385.47357		68.51400		324.00000 
 43692.65567		 546.81755			43145.83812		115.38000		562.00000 
 43692.65567		 307.18210			43385.47357		68.51400		324.00000 
 43692.65567		 546.81755			43145.83812		115.38000		562.00000 
 43692.65567		 307.18210			43385.47357		68.51400		324.00000 
 43692.65567		 546.81755			43145.83812		115.38000		562.00000 
 43692.65567		 307.18210			43385.47357		68.51400		324.00000 
 43692.65567		 546.81755			43145.83812		115.53400		562.00000 
 43692.65567		 307.18210			43385.47357		68.51400		324.00000 
 43692.65567		 546.81755			43145.83812		115.53400		562.00000 
 43692.65567		 307.18210			43385.47357		68.51400		324.00000 
 43692.65567		 546.81755			43145.83812		115.53400		562.00000 
 43692.65567		 307.18210			43385.47357		68.51400		324.00000 
 43692.65567		 546.81755			43145.83812		115.53400		562.00000 
 43692.65567		 307.18210			43385.47357		68.51400		324.00000 
 43692.65567		 546.81755			43145.83812		115.53400		562.00000 
 43692.65567		 307.18210			43385.47357		68.51400		324.00000 
 43692.65567		 546.81755			43145.83812		115.53400		562.00000 
 43692.65567		 307.18210			43385.47357		68.51400		324.00000 
 43692.65567		 546.81755			43145.83812		115.53400		562.00000 
 43692.65567		 307.18210			43385.47357		68.51400		324.00000 
 43692.65567		 546.81755			43145.83812		115.53400		562.00000 
 43692.65567		 307.18210			43385.47357		68.51400		324.00000 
 43692.65567		 546.81755			43145.83812		115.53400		562.00000 
 43692.65567		 307.18210			43385.47357		68.51400		324.00000 
 43692.65567		 546.81755			43145.83812		115.53400		562.00000 
 43692.65567		 307.18210			43385.47357		68.51400		324.00000 
 43692.65567		 546.81755			43145.83812		115.53400		562.00000 
 43692.65567		 307.18210			43385.47357		68.51400		324.00000 
 43692.65567		 546.81755			43145.83812		115.53400		562.00000 
 43692.65567		 307.18210			43385.47357		68.51400		324.00000 
 43692.65567		 546.81755			43145.83812		115.53400		562.00000 
 43692.65567		 307.18210			43385.47357		68.51400		324.00000 
 43692.65567		 546.81755			43145.83812		115.53400		562.00000 
 43692.65567		 307.18210			43385.47357		68.51400		324.00000 
 43692.65567		 546.81755			43145.83812		115.53400		562.00000 
 43692.65567		 307.18210			43385.47357		68.51400		324.00000 
 43692.65567		 546.81755			43145.83812		115.53400		562.00000 
 43692.65567		 307.18210			43385.47357		68.51400		324.00000 
 43692.65567		 546.81755			43145.83812		115.53400		562.00000 
 43692.65567		 307.18210			43385.47357		68.51400		324.00000 
 43692.65567		 546.81755			43145.83812		115.53400		562.00000 
 43692.65567		 307.18210			43385.47357		68.51400		324.00000 
 43692.65567		 546.81755			43145.83812		115.53400		562.00000 
 43692.65567		 307.18210			43385.47357		68.51400		324.00000 
 43692.65567		 546.81755			43145.83812		115.53400		562.00000 
 43692.65567		 307.18210			43385.47357		68.51400		324.00000 
 43692.65567		 535.36088			43157.29480		115.53400		562.00000 
 43692.65567		 307.18210			43385.47357		68.51400		324.00000 
 43692.65567		 535.36088			43157.29480		115.53400		562.00000 
 43692.65567		 295.72542			43396.93025		68.51400		324.00000 
 43692.65567		 263.26484			43429.39083		115.53400		562.00000 
 43692.65567		 263.26484			43429.39083		68.51400		324.00000 
